*UCTD Data File:
*FileName = C:\Users\survey\Documents\uCTD_Data\test3.asc
*Software Version 1.2.1
*getsd
*StatusData:
*DeviceType=90745 UCTD
*Version=CTD
*SerialNumber=70200187
*DateTime=21 Apr 2014 18:32:22
*Bluetooth active
*Bluetooth connected
*Power:
*MainBatteryVoltage= 4.19
*SampleMemorySummary:
*SamplesStored=7480
*NumberCasts=4
*Stop seconds=0
*SamplesFree=680648
*Binary transfer block size=1 kbytes
*Cast start= wait disabled
*getcd
*ConfigurationData:
*DeviceType=90745 UCTD
*Version=CTD
*SerialNumber=70200187
*Settings:
*ReplyFormat=plain text
*BlueToothBaudRate=9600
*CalibrationCoefficients:
*Temperature:
*CalDate=16-Jan-14
*Coefficients:
*A0=8.767728e-04
*A1=2.785097e-04
*A2=-2.099580e-06
*A3=1.930474e-07
*Conductivity:
*CalDate=16-Jan-14
*Coefficients:
*G=-9.887334e-01
*H=1.402299e-01
*I=-2.264862e-04
*J=3.930030e-05
*PCOR=-9.570000e-08
*TCOR=3.250000e-06
*SLOPE=1.000000e+00
*Pressure:
*CalDate=13-Jan-14
*SerialNumber=2143155
*Coefficients:
*A0=-2.172705e-01
*A1=8.779983e-03
*A2=6.893222e-11
*PTEMP A0=-9.035770e+01
*PTEMP A1=3.757729e-02
*PTEMP A2=8.382934e-07
*TC A0=5.257248e+05
*TC A1=-1.266389e+01
*TC A2=5.543477e-01
*TC B0=1.050162e+02
*TC B1=-2.284512e-03
*TC B2=0.000000e+00
*RANGE=2.900000e+03
*OFFSET=0.000000e+00
*
*gh=3
*Cast 3 21 Apr 2014 18:20:00 2601 4.20 received stop
*
1  0.00000 20.187    0.031
2  0.00000 20.184    0.031
3  0.00000 20.183    0.000
4  0.00000 20.183    0.000
5  0.00000 20.179    0.000
6  0.00000 20.176    0.000
7  0.00000 20.174    0.000
8  0.00000 20.175    0.000
9  0.00000 20.176    0.000
10  0.00000 20.178    0.000
11  0.00000 20.177    0.031
12  0.00000 20.176    0.031
13  0.00000 20.176    0.031
14  0.00000 20.176    0.031
15  0.00000 20.174    0.031
16  0.00000 20.173    0.031
17  0.00000 20.173    0.031
18  0.00000 20.171    0.031
19  0.00000 20.171    0.031
20  0.00000 20.172    0.031
21  0.00000 20.174    0.000
22  0.00000 20.175    0.000
23  0.00000 20.175    0.000
24  0.00000 20.174    0.000
25  0.00000 20.174    0.031
26  0.00000 20.174    0.031
27  0.00000 20.172    0.031
28  0.00000 20.169    0.031
29  0.00000 20.167    0.031
30  0.00000 20.167    0.031
31  0.00000 20.167    0.031
32  0.00000 20.167    0.031
33  0.00000 20.168    0.031
34  0.00000 20.170    0.000
35  0.00000 20.172    0.031
36  0.00000 20.174    0.031
37  0.00000 20.175    0.031
38  0.00000 20.176    0.000
39  0.00000 20.177    0.031
40  0.00000 20.178    0.031
41  0.00000 20.179    0.000
42  0.00000 20.179    0.031
43  0.00000 20.178    0.031
44  0.00000 20.178    0.031
45  0.00000 20.178    0.031
46  0.00000 20.177    0.063
47  0.00000 20.177    0.063
48  0.00000 20.176    0.031
49  0.00000 20.175    0.031
50  0.00000 20.175    0.031
51  0.00000 20.175    0.000
52  0.00000 20.175    0.000
53  0.00000 20.175    0.000
54  0.00000 20.175    0.031
55  0.00000 20.173    0.031
56  0.00000 20.172    0.031
57  0.00000 20.173    0.031
58  0.00000 20.174    0.031
59  0.00000 20.175    0.031
60  0.00000 20.174    0.031
61  0.00000 20.172    0.031
62  0.00000 20.171    0.031
63  0.00000 20.171    0.031
64  0.00000 20.171    0.031
65  0.00000 20.171    0.031
66  0.00000 20.170    0.031
67  0.00000 20.168    0.031
68  0.00000 20.166    0.031
69  0.00000 20.166    0.031
70  0.00000 20.164    0.031
71  0.00000 20.162    0.031
72  0.00000 20.158    0.031
73  0.00000 20.155    0.000
74  0.00000 20.153    0.000
75  0.00000 20.150    0.000
76  0.00000 20.148    0.000
77  0.00000 20.147    0.031
78  0.00000 20.146    0.031
79  0.00000 20.145    0.031
80  0.00000 20.144    0.000
81  0.00000 20.143    0.031
82  0.00000 20.142    0.031
83  0.00000 20.141    0.000
84  0.00000 20.143    0.031
85  0.00000 20.144    0.031
86  0.00000 20.143    0.031
87  0.00000 20.141    0.000
88  0.00000 20.141    0.000
89  0.00000 20.141    0.000
90  0.00000 20.142    0.000
91  0.00000 20.142    0.031
92  0.00000 20.143    0.031
93  0.00000 20.144    0.031
94  0.00000 20.145    0.000
95  0.00000 20.145    0.000
96  0.00000 20.145    0.031
97  0.00000 20.145    0.031
98  0.00000 20.142    0.031
99  0.00000 20.142    0.031
100  0.00000 20.144    0.031
101  0.00000 20.146    0.031
102  0.00000 20.147    0.031
103  0.00000 20.147    0.000
104  0.00000 20.147    0.000
105  0.00000 20.146    0.031
106  0.00000 20.143    0.000
107  0.00000 20.136    0.000
108  0.00000 20.133    0.000
109  0.00000 20.134    0.000
110  0.00000 20.136    0.031
111  0.00000 20.138    0.000
112  0.00000 20.135    0.000
113  0.00000 20.133    0.000
114  0.00000 20.134    0.000
115  0.00000 20.135    0.000
116  0.00000 20.134    0.000
117  0.00000 20.134    0.031
118  0.00000 20.132    0.031
119  0.00000 20.130    0.031
120  0.00000 20.130    0.031
121  0.00000 20.132    0.000
122  0.00000 20.132    0.000
123  0.00000 20.130    0.000
124  0.00000 20.132    0.031
125  0.00000 20.135    0.000
126  0.00000 20.136    0.000
127  0.00000 20.134    0.031
128  0.00000 20.134    0.031
129  0.00000 20.134    0.031
130  0.00000 20.129    0.031
131  0.00000 20.126    0.031
132  0.00000 20.128    0.031
133  0.00000 20.126    0.031
134  0.00000 20.116    0.031
135  0.00000 20.108    0.031
136  0.00000 20.101    0.031
137  0.00000 20.096    0.031
138  0.00000 20.095    0.031
139  0.00000 20.091    0.000
140  0.00000 20.090    0.031
141  0.00000 20.093    0.031
142  0.00000 20.098    0.031
143  0.00000 20.100    0.031
144  0.00000 20.096    0.031
145  0.00000 20.089    0.031
146  0.00000 20.083    0.031
147  0.00000 20.076    0.063
148  0.00000 20.076    0.031
149  0.00000 20.079    0.031
150  0.00000 20.082    0.031
151  0.00000 20.083    0.031
152  0.00000 20.083    0.031
153  0.00000 20.081    0.000
154  0.00000 20.081    0.031
155  0.00000 20.084    0.031
156  0.00000 20.086    0.031
157  0.00000 20.087    0.031
158  0.00000 20.088    0.031
159  0.00000 20.089    0.031
160  0.00000 20.091    0.031
161  0.00000 20.092    0.063
162  0.00000 20.092    0.031
163  0.00000 20.091    0.000
164  0.00000 20.088    0.031
165  0.00000 20.085    0.031
166  0.00000 20.086    0.031
167  0.00000 20.088    0.031
168  0.00000 20.091    0.031
169  0.00000 20.092    0.031
170  0.00000 20.092    0.031
171  0.00000 20.091    0.031
172  0.00000 20.090    0.031
173  0.00000 20.091    0.031
174  0.00000 20.092    0.031
175  0.00000 20.096    0.031
176  0.00000 20.102    0.031
177  0.00000 20.106    0.031
178  0.00000 20.108    0.031
179  0.00000 20.109    0.031
180  0.00000 20.109    0.031
181  0.00000 20.111    0.031
182  0.00000 20.115    0.031
183  0.00000 20.119    0.031
184  0.00000 20.122    0.000
185  0.00000 20.125    0.000
186  0.00000 20.127    0.000
187  0.00000 20.128    0.000
188  0.00000 20.130    0.000
189  0.00000 20.130    0.031
190  0.00000 20.128    0.000
191  0.00000 20.124    0.031
192  0.00000 20.120    0.031
193  0.00000 20.118    0.031
194  0.00000 20.116    0.031
195  0.00000 20.119    0.031
196  0.00000 20.122    0.031
197  0.00000 20.127    0.031
198  0.00000 20.131    0.031
199  0.00000 20.134    0.031
200  0.00000 20.137    0.000
201  0.00000 20.138    0.000
202  0.00000 20.139    0.000
203  0.00000 20.140    0.000
204  0.00000 20.141    0.000
205  0.00000 20.141    0.000
206  0.00000 20.138    0.000
207  0.00000 20.135    0.000
208  0.00000 20.132    0.000
209  0.00000 20.132    0.000
210  0.00000 20.131    0.031
211  0.00000 20.132    0.031
212  0.00000 20.133    0.031
213  0.00000 20.134    0.031
214  0.00000 20.135    0.031
215  0.00000 20.137    0.000
216  0.00000 20.138    0.000
217  0.00000 20.141    0.031
218  0.00000 20.143    0.000
219  0.00000 20.145    0.000
220  0.00000 20.146    0.000
221  0.00000 20.147    0.031
222  0.00000 20.148    0.000
223  0.00000 20.148    0.000
224  0.00000 20.143    0.000
225  0.00000 20.137    0.000
226  0.00000 20.136    0.000
227  0.00000 20.137    0.000
228  0.00000 20.139    0.031
229  0.00000 20.141    0.031
230  0.00000 20.142    0.000
231  0.00000 20.143    0.000
232  0.00000 20.142    0.000
233  0.00000 20.142    0.000
234  0.00000 20.143    0.000
235  0.00000 20.143    0.000
236  0.00000 20.142    0.000
237  0.00000 20.141    0.000
238  0.00000 20.140    0.000
239  0.00000 20.138    0.000
240  0.00000 20.137    0.000
241  0.00000 20.137    0.000
242  0.00000 20.134    0.031
243  0.00000 20.131    0.031
244  0.00000 20.128    0.000
245  0.00000 20.126    0.000
246  0.00000 20.124   -0.031
247  0.00000 20.123    0.000
248  0.00000 20.120    0.000
249  0.00000 20.117    0.000
250  0.00000 20.115    0.000
251  0.00000 20.112    0.000
252  0.00000 20.107    0.031
253  0.00000 20.103    0.000
254  0.00000 20.099    0.000
255  0.00000 20.094    0.031
256  0.00000 20.091    0.000
257  0.00000 20.087    0.000
258  0.00000 20.084    0.000
259  0.00000 20.082    0.000
260  0.00000 20.082    0.000
261  0.00000 20.082    0.000
262  0.00000 20.081    0.000
263  0.00000 20.082    0.000
264  0.00000 20.082    0.000
265  0.00000 20.081    0.000
266  0.00000 20.081    0.000
267  0.00000 20.083    0.000
268  0.00000 20.084    0.000
269  0.00000 20.084    0.000
270  0.00000 20.083    0.000
271  0.00000 20.081    0.000
272  0.00000 20.075    0.000
273  0.00000 20.073    0.000
274  0.00000 20.072   -0.031
275  0.00000 20.071    0.000
276  0.00000 20.068    0.000
277  0.00000 20.065    0.000
278  0.00000 20.065    0.000
279  0.00000 20.065    0.000
280  0.00000 20.061    0.000
281  0.00000 20.057    0.000
282  0.00000 20.054    0.000
283  0.00000 20.053    0.000
284  0.00000 20.053    0.000
285  0.00000 20.053   -0.031
286  0.00000 20.053   -0.031
287  0.00000 20.050   -0.031
288  0.00000 20.039    0.000
289  0.00000 20.033    0.000
290  0.00000 20.032    0.000
291  0.00000 20.034    0.000
292  0.00000 20.036    0.000
293  0.00000 20.037    0.000
294  0.00000 20.039    0.000
295  0.00000 20.041    0.000
296  0.00000 20.040    0.000
297  0.00000 20.040    0.000
298  0.00000 20.040    0.000
299  0.00000 20.041    0.000
300  0.00000 20.042    0.000
301  0.00000 20.043    0.000
302  0.00000 20.043    0.000
303  0.00000 20.041    0.000
304  0.00000 20.042    0.031
305  0.00000 20.043    0.000
306  0.00000 20.044    0.000
307  0.00000 20.047    0.000
308  0.00000 20.050    0.000
309  0.00000 20.052    0.000
310  0.00000 20.052    0.000
311  0.00000 20.051    0.000
312  0.00000 20.051    0.000
313  0.00000 20.051   -0.031
314  0.00000 20.051    0.000
315  0.00000 20.051    0.000
316  0.00000 20.051    0.000
317  0.00000 20.052    0.000
318  0.00000 20.048    0.000
319  0.00000 20.042    0.000
320  0.00000 20.040    0.000
321  0.00000 20.043    0.000
322  0.00000 20.044    0.000
323  0.00000 20.043    0.000
324  0.00000 20.039    0.000
325  0.00000 20.035    0.000
326  0.00000 20.030    0.000
327  0.00000 20.024    0.000
328  0.00000 20.018    0.000
329  0.00000 20.014    0.000
330  0.00000 20.013    0.000
331  0.00000 20.013    0.000
332  0.00000 20.013    0.000
333  0.00000 20.013    0.000
334  0.00000 20.013    0.000
335  0.00000 20.015    0.031
336  0.00000 20.017    0.031
337  0.00000 20.018    0.031
338  0.00000 20.018    0.000
339  0.00000 20.023    0.000
340  0.00000 20.029    0.000
341  0.00000 20.034    0.031
342  0.00000 20.036    0.000
343  0.00000 20.038    0.000
344  0.00000 20.041    0.000
345  0.00000 20.044    0.000
346  0.00000 20.046    0.000
347  0.00000 20.049    0.000
348  0.00000 20.051    0.000
349  0.00000 20.052    0.000
350  0.00000 20.051    0.000
351  0.00000 20.050    0.000
352  0.00000 20.049    0.000
353  0.00000 20.048    0.000
354  0.00000 20.048    0.000
355  0.00000 20.048    0.031
356  0.00000 20.047    0.031
357  0.00000 20.048    0.000
358  0.00000 20.051    0.000
359  0.00000 20.054    0.000
360  0.00000 20.055    0.000
361  0.00000 20.054    0.000
362  0.00000 20.053    0.000
363  0.00000 20.054    0.000
364  0.00000 20.055    0.000
365  0.00000 20.057    0.000
366  0.00000 20.058    0.000
367  0.00000 20.059    0.000
368  0.00000 20.060    0.000
369  0.00000 20.060    0.000
370  0.00000 20.061    0.031
371  0.00000 20.062    0.000
372  0.00000 20.064    0.031
373  0.00000 20.067    0.031
374  0.00000 20.068    0.000
375  0.00000 20.067    0.000
376  0.00000 20.067    0.000
377  0.00000 20.066    0.000
378  0.00000 20.063    0.000
379  0.00000 20.061    0.000
380  0.00000 20.059    0.000
381  0.00000 20.055    0.000
382  0.00000 20.050    0.000
383  0.00000 20.048    0.031
384  0.00000 20.046    0.000
385  0.00000 20.046    0.031
386  0.00000 20.046    0.000
387  0.00000 20.047    0.000
388  0.00000 20.047    0.000
389  0.00000 20.047    0.000
390  0.00000 20.047    0.000
391  0.00000 20.048    0.000
392  0.00000 20.049    0.000
393  0.00000 20.050    0.000
394  0.00000 20.052    0.000
395  0.00000 20.054    0.000
396  0.00000 20.056    0.000
397  0.00000 20.058    0.000
398  0.00000 20.059    0.000
399  0.00000 20.059    0.000
400  0.00000 20.058    0.000
401  0.00000 20.056    0.000
402  0.00000 20.056    0.000
403  0.00000 20.054    0.000
404  0.00000 20.053    0.000
405  0.00000 20.052    0.000
406  0.00000 20.053    0.000
407  0.00000 20.053    0.000
408  0.00000 20.052    0.000
409  0.00000 20.051    0.000
410  0.00000 20.049    0.000
411  0.00000 20.046    0.031
412  0.00000 20.041    0.000
413  0.00000 20.035    0.000
414  0.00000 20.029    0.000
415  0.00000 20.024    0.000
416  0.00000 20.022    0.000
417  0.00000 20.019    0.031
418  0.00000 20.018    0.000
419  0.00000 20.016    0.000
420  0.00000 20.016    0.000
421  0.00000 20.015    0.000
422  0.00000 20.015    0.000
423  0.00000 20.015   -0.031
424  0.00000 20.015    0.000
425  0.00000 20.015    0.000
426  0.00000 20.014    0.031
427  0.00000 20.013    0.031
428  0.00000 20.012    0.000
429  0.00000 20.009    0.000
430  0.00000 19.999    0.031
431  0.00000 19.979    0.000
432  0.00000 19.960    0.000
433  0.00000 19.946    0.000
434  0.00000 19.940    0.000
435  0.03833 19.939   -0.031
436  0.06396 19.946    0.000
437  0.00000 19.958    0.000
438  0.00000 19.970    0.031
439  0.00000 19.979    0.031
440  0.00000 19.984    0.000
441  0.00000 19.975    0.000
442  0.00000 19.948    0.000
443  0.00000 19.926    0.000
444  0.00000 19.910    0.000
445  0.00000 19.900    0.000
446  0.00000 19.892    0.000
447  0.00000 19.881    0.000
448  0.00000 19.868    0.000
449  0.00000 19.856    0.000
450  0.00000 19.848    0.000
451  0.00000 19.842    0.000
452  0.00000 19.835    0.000
453  0.00000 19.828    0.000
454  0.00000 19.821    0.000
455  0.00000 19.812    0.000
456  0.00000 19.801    0.000
457  0.00000 19.791    0.031
458  0.00000 19.781    0.031
459  0.00000 19.771    0.031
460  0.00000 19.761    0.031
461  0.00000 19.750    0.031
462  0.00000 19.740    0.000
463  0.00000 19.730    0.000
464  0.00000 19.718   -0.031
465  0.00000 19.700   -0.031
466  0.00000 19.562   -0.031
467  0.00000 19.287    0.000
468  0.00000 19.107    0.000
469  0.00000 18.968    0.000
470  0.00000 18.843    0.000
471  0.14729 18.784    0.000
472  2.09750 18.763    0.000
473  4.05771 18.741    0.000
474  4.26479 18.725    0.000
475  4.32750 18.717    0.000
476  4.58729 18.707    0.000
477  4.66458 18.693    0.031
478  4.66979 18.684    0.094
479  4.67479 18.661    0.094
480  4.64000 18.629    0.063
481  4.63104 18.618    0.063
482  4.68104 18.644    0.094
483  4.68896 18.660    0.094
484  4.68375 18.672    0.094
485  4.68708 18.682    0.125
486  4.69583 18.701    0.125
487  4.70042 18.710    0.063
488  4.67604 18.712    0.031
489  4.67229 18.712    0.000
490  4.46333 18.705    0.000
491  3.38708 18.709    0.031
492  2.12063 18.716    0.000
493  1.38167 18.710   -0.031
494  1.84521 18.718    0.000
495  2.00438 18.720    0.000
496  2.51125 18.723    0.031
497  3.01042 18.708    0.000
498  1.93604 18.686    0.000
499  4.54188 18.679    0.000
500  4.00396 18.680    0.000
501  3.49458 18.671    0.031
502  2.66396 18.666    0.031
503  2.30125 18.667    0.000
504  1.16562 18.673    0.000
505  0.87062 18.695    0.000
506  0.60125 18.727    0.000
507  1.05750 18.745    0.000
508  2.91625 18.746    0.031
509  4.01750 18.739    0.000
510  4.20625 18.729    0.031
511  4.07333 18.730    0.031
512  4.22854 18.740    0.031
513  4.17208 18.735    0.031
514  3.70125 18.720    0.094
515  4.34896 18.700    0.219
516  4.62437 18.665    0.313
517  4.68625 18.631    0.281
518  4.69500 18.622    0.250
519  4.69729 18.636    0.500
520  4.70021 18.637    0.750
521  4.70021 18.625    0.906
522  4.70000 18.612    0.969
523  4.69813 18.607    1.125
524  4.69688 18.592    1.281
525  4.70042 18.571    1.313
526  4.69625 18.563    1.281
527  4.69333 18.550    1.594
528  4.69146 18.540    1.719
529  4.69042 18.526    1.781
530  4.69042 18.513    1.781
531  4.69083 18.510    1.781
532  4.69250 18.516    1.781
533  4.69396 18.536    1.938
534  4.69500 18.555    2.031
535  4.69604 18.562    2.094
536  4.69667 18.568    2.156
537  4.69729 18.573    2.281
538  4.69771 18.578    2.406
539  4.69813 18.586    2.531
540  4.69854 18.592    2.656
541  4.69875 18.595    2.719
542  4.69896 18.595    2.750
543  4.69917 18.597    2.813
544  4.69896 18.589    2.875
545  4.69813 18.580    3.031
546  4.69521 18.575    3.188
547  4.69438 18.548    3.344
548  4.69125 18.546    3.500
549  4.68313 18.523    3.656
550  4.68146 18.464    3.844
551  4.68083 18.433    4.031
552  4.68000 18.420    4.219
553  4.67875 18.413    4.438
554  4.67667 18.403    4.625
555  4.67500 18.387    4.844
556  4.67167 18.373    5.031
557  4.67271 18.361    5.250
558  4.67312 18.356    5.438
559  4.67312 18.354    5.656
560  4.67208 18.352    5.844
561  4.67146 18.347    6.000
562  4.67083 18.340    6.188
563  4.67021 18.334    6.406
564  4.67042 18.329    6.625
565  4.67021 18.327    6.844
566  4.67021 18.325    7.063
567  4.67021 18.325    7.281
568  4.67063 18.326    7.406
569  4.67146 18.325    7.500
570  4.67271 18.326    7.594
571  4.67271 18.331    7.625
572  4.67250 18.334    7.563
573  4.67292 18.338    7.531
574  4.67354 18.340    7.406
575  4.67417 18.341    7.250
576  4.67417 18.341    7.125
577  4.67396 18.340    7.000
578  4.67312 18.340    6.875
579  4.67271 18.341    6.750
580  4.67271 18.341    6.625
581  4.67271 18.342    6.469
582  4.67271 18.343    6.313
583  4.67292 18.344    6.188
584  4.67292 18.345    6.031
585  4.67312 18.348    5.906
586  4.67354 18.351    5.750
587  4.67396 18.353    5.594
588  4.67396 18.355    5.500
589  4.67438 18.358    5.344
590  4.67479 18.361    5.188
591  4.67500 18.363    5.031
592  4.67521 18.366    4.906
593  4.67563 18.366    4.813
594  4.67604 18.367    4.688
595  4.67667 18.369    4.563
596  4.67708 18.372    4.469
597  4.67750 18.376    4.344
598  4.67833 18.381    4.250
599  4.67875 18.385    4.094
600  4.67875 18.388    3.969
601  4.67854 18.394    3.844
602  4.67896 18.401    3.719
603  4.67958 18.405    3.594
604  4.68000 18.409    3.500
605  4.68042 18.414    3.344
606  4.68083 18.423    3.250
607  4.68125 18.448    3.125
608  4.68146 18.457    3.031
609  4.68187 18.448    2.906
610  4.68208 18.440    2.781
611  4.68250 18.440    2.656
612  4.68292 18.451    2.500
613  4.68521 18.472    2.344
614  4.68583 18.493    2.250
615  4.68625 18.496    2.125
616  4.68687 18.482    2.000
617  4.68771 18.482    1.938
618  4.68792 18.484    1.844
619  4.68667 18.477    1.719
620  4.68625 18.466    1.625
621  4.68708 18.472    1.469
622  4.68938 18.500    1.438
623  4.69083 18.517    1.375
624  4.69104 18.522    1.344
625  4.69083 18.526    1.344
626  4.69167 18.534    1.281
627  4.69313 18.544    1.219
628  4.69375 18.554    1.125
629  4.69313 18.568    1.094
630  4.69333 18.575    1.156
631  4.69375 18.572    1.188
632  4.69375 18.559    1.156
633  4.69313 18.555    1.125
634  4.69229 18.558    1.063
635  4.69187 18.553    1.031
636  4.69271 18.541    1.000
637  4.69458 18.533    0.938
638  4.69604 18.539    0.844
639  4.69562 18.551    0.750
640  4.69542 18.567    0.656
641  4.69562 18.565    0.500
642  4.69583 18.555    0.344
643  4.69583 18.555    0.250
644  4.69583 18.561    0.219
645  4.69542 18.561    0.188
646  4.69479 18.554    0.188
647  4.69479 18.548    0.219
648  4.69479 18.545    0.250
649  4.69500 18.544    0.219
650  4.69479 18.546    0.125
651  4.69458 18.549    0.125
652  4.69500 18.560    0.219
653  4.69479 18.565    0.250
654  4.69458 18.569    0.188
655  4.69354 18.573    0.156
656  4.69396 18.571    0.094
657  4.69354 18.574    0.063
658  4.66896 18.577    0.094
659  4.64625 18.578    0.188
660  4.62583 18.588    0.313
661  4.61625 18.604    0.406
662  4.67125 18.607    0.469
663  4.67458 18.606    0.469
664  4.68333 18.607    0.406
665  4.69375 18.620    0.375
666  4.69667 18.629    0.281
667  4.69708 18.629    0.125
668  4.69479 18.624    0.063
669  4.67354 18.615    0.031
670  4.64854 18.601    0.031
671  4.65000 18.593    0.063
672  4.67250 18.587    0.094
673  4.67979 18.583    0.219
674  4.68104 18.582    0.313
675  4.67792 18.590    0.438
676  4.68042 18.605    0.469
677  4.69854 18.624    0.344
678  4.70146 18.643    0.219
679  4.70125 18.664    0.156
680  4.70104 18.671    0.188
681  4.70083 18.670    0.219
682  4.70146 18.672    0.250
683  4.70208 18.675    0.188
684  4.70208 18.670    0.188
685  4.69229 18.664    0.281
686  4.68479 18.651    0.250
687  4.67938 18.616    0.156
688  4.66812 18.581    0.063
689  4.64208 18.563    0.063
690  4.64187 18.556    0.094
691  4.66667 18.553    0.219
692  4.67854 18.549    0.344
693  4.68271 18.542    0.313
694  4.68187 18.540    0.188
695  4.68042 18.547    0.063
696  4.68354 18.547    0.031
697  4.68208 18.545    0.031
698  4.66979 18.547    0.063
699  4.66812 18.555    0.063
700  4.67146 18.561    0.156
701  4.68229 18.567    0.313
702  4.67563 18.567    0.313
703  4.67167 18.569    0.156
704  4.67563 18.575    0.156
705  4.67188 18.580    0.156
706  4.67563 18.580    0.219
707  4.67667 18.567    0.281
708  4.67792 18.556    0.375
709  4.67729 18.556    0.313
710  4.67854 18.561    0.156
711  4.68125 18.574    0.094
712  4.68625 18.588    0.125
713  4.68729 18.592    0.156
714  4.68771 18.587    0.188
715  4.68417 18.574    0.344
716  4.68021 18.558    0.469
717  4.68375 18.559    0.375
718  4.68542 18.553    0.125
719  4.68167 18.538    0.125
720  4.68250 18.530    0.156
721  4.68833 18.535    0.125
722  4.67896 18.548    0.094
723  4.68813 18.558    0.188
724  4.68417 18.556    0.281
725  4.68375 18.556    0.281
726  4.68125 18.564    0.219
727  4.67771 18.569    0.094
728  4.68667 18.567    0.094
729  4.69062 18.549    0.188
730  4.68979 18.538    0.219
731  4.69062 18.542    0.250
732  4.69146 18.554    0.250
733  4.69125 18.546    0.219
734  4.69062 18.510    0.219
735  4.68917 18.485    0.188
736  4.68833 18.479    0.125
737  4.68813 18.483    0.125
738  4.68896 18.491    0.125
739  4.69042 18.501    0.094
740  4.68958 18.520    0.000
741  4.68646 18.550   -0.063
742  4.68458 18.574    0.031
743  4.68604 18.544    0.219
744  4.68417 18.503    0.500
745  4.68292 18.470    0.594
746  4.68333 18.455    0.438
747  4.68354 18.459    0.344
748  4.68271 18.463    0.281
749  4.68063 18.463    0.219
750  4.68187 18.474    0.188
751  4.68229 18.487    0.094
752  4.68208 18.489    0.156
753  4.68438 18.492    0.219
754  4.67583 18.506    0.219
755  4.68125 18.524    0.250
756  4.68625 18.533    0.313
757  4.68896 18.532    0.313
758  4.69021 18.528    0.281
759  4.68917 18.540    0.219
760  4.68667 18.552    0.406
761  4.68833 18.541    0.531
762  4.68708 18.519    0.438
763  4.68792 18.507    0.344
764  4.68771 18.504    0.250
765  4.68583 18.495    0.219
766  4.68521 18.483    0.250
767  4.68646 18.485    0.250
768  4.68833 18.506    0.250
769  4.68625 18.529    0.250
770  4.68833 18.545    0.250
771  4.68771 18.544    0.219
772  4.68875 18.531    0.250
773  4.69000 18.528    0.344
774  4.69000 18.534    0.281
775  4.69000 18.542    0.156
776  4.69083 18.547    0.063
777  4.69104 18.550    0.125
778  4.69146 18.552    0.188
779  4.69146 18.552    0.219
780  4.69146 18.546    0.219
781  4.69167 18.544    0.156
782  4.69146 18.548    0.188
783  4.69187 18.551    0.219
784  4.68521 18.552    0.344
785  4.67812 18.549    0.344
786  4.68208 18.545    0.250
787  4.69104 18.540    0.219
788  4.68979 18.538    0.125
789  4.68917 18.545    0.031
790  4.68687 18.546    0.094
791  4.68813 18.541    0.125
792  4.68458 18.539    0.219
793  4.68354 18.539    0.219
794  4.68104 18.545    0.188
795  4.68583 18.552    0.313
796  4.68375 18.555    0.344
797  4.68375 18.554    0.313
798  4.68313 18.556    0.250
799  4.68292 18.557    0.156
800  4.68917 18.558    0.188
801  4.69021 18.560    0.219
802  4.68729 18.561    0.281
803  4.68646 18.562    0.313
804  4.68438 18.566    0.313
805  4.68875 18.569    0.375
806  4.69000 18.569    0.438
807  4.69000 18.564    0.375
808  4.68771 18.562    0.281
809  4.68792 18.560    0.188
810  4.69125 18.555    0.125
811  4.68167 18.552    0.031
812  4.66688 18.548    0.188
813  4.66604 18.552    0.281
814  4.67833 18.556    0.219
815  4.68625 18.561    0.219
816  4.68604 18.565    0.219
817  4.68604 18.563    0.156
818  4.68854 18.566    0.219
819  4.68083 18.574    0.375
820  4.67917 18.583    0.375
821  4.67896 18.591    0.375
822  4.68250 18.591    0.219
823  4.68500 18.577    0.156
824  4.68813 18.565    0.219
825  4.68583 18.562    0.188
826  4.68979 18.569    0.063
827  4.68792 18.582    0.031
828  4.61333 18.586    0.219
829  4.60187 18.583    0.406
830  4.62812 18.581    0.313
831  4.64333 18.587    0.188
832  4.60458 18.591    0.125
833  4.59708 18.594    0.156
834  4.61000 18.595    0.219
835  4.60875 18.591    0.313
836  4.60625 18.588    0.281
837  4.65437 18.590    0.219
838  4.67500 18.592    0.219
839  4.67792 18.591    0.156
840  4.67667 18.590    0.125
841  4.67896 18.588    0.281
842  4.68063 18.590    0.406
843  4.68646 18.594    0.438
844  4.68646 18.597    0.344
845  4.68562 18.593    0.250
846  4.68396 18.583    0.219
847  4.68542 18.583    0.125
848  4.69062 18.589    0.094
849  4.69146 18.596    0.219
850  4.69062 18.600    0.281
851  4.69021 18.605    0.313
852  4.69396 18.610    0.313
853  4.69438 18.614    0.281
854  4.69521 18.614    0.250
855  4.69500 18.600    0.281
856  4.69500 18.583    0.281
857  4.69542 18.584    0.281
858  4.69562 18.593    0.313
859  4.69562 18.599    0.344
860  4.69562 18.604    0.344
861  4.69604 18.609    0.406
862  4.69646 18.610    0.469
863  4.69625 18.607    0.406
864  4.69583 18.605    0.281
865  4.69625 18.598    0.125
866  4.69625 18.588    0.188
867  4.69625 18.588    0.250
868  4.69667 18.593    0.250
869  4.69604 18.595    0.250
870  4.69604 18.588    0.250
871  4.69646 18.579    0.344
872  4.69562 18.583    0.375
873  4.69521 18.591    0.375
874  4.69542 18.592    0.375
875  4.69500 18.587    0.375
876  4.69542 18.583    0.375
877  4.69646 18.582    0.313
878  4.69667 18.587    0.219
879  4.69667 18.591    0.156
880  4.69667 18.594    0.219
881  4.69667 18.595    0.250
882  4.69667 18.582    0.281
883  4.69625 18.546    0.250
884  4.69062 18.520    0.313
885  4.68875 18.527    0.563
886  4.69125 18.545    0.656
887  4.69521 18.563    0.656
888  4.69396 18.576    0.656
889  4.69458 18.580    0.594
890  4.69604 18.565    0.594
891  4.69688 18.566    0.531
892  4.69688 18.579    0.438
893  4.69729 18.587    0.406
894  4.69729 18.589    0.406
895  4.69750 18.591    0.344
896  4.69729 18.592    0.281
897  4.69667 18.590    0.219
898  4.69479 18.578    0.156
899  4.69458 18.560    0.188
900  4.69562 18.538    0.156
901  4.69542 18.524    0.063
902  4.69500 18.526    0.031
903  4.69521 18.540    0.031
904  4.69271 18.533    0.125
905  4.68521 18.516    0.313
906  4.67833 18.507    0.313
907  4.68042 18.509    0.188
908  4.67563 18.521    0.188
909  4.67750 18.539    0.313
910  4.67563 18.561    0.313
911  4.67771 18.577    0.250
912  4.68187 18.575    0.219
913  4.67396 18.568    0.219
914  4.67146 18.564    0.406
915  4.67687 18.564    0.438
916  4.67792 18.567    0.344
917  4.68542 18.568    0.344
918  4.68813 18.573    0.375
919  4.69313 18.582    0.375
920  4.69146 18.583    0.406
921  4.68813 18.581    0.375
922  4.69042 18.581    0.188
923  4.68896 18.583    0.063
924  4.68896 18.584    0.156
925  4.68521 18.593    0.219
926  4.68458 18.598    0.219
927  4.68250 18.595    0.219
928  4.68146 18.596    0.188
929  4.68125 18.600    0.188
930  4.68042 18.604    0.281
931  4.69146 18.607    0.281
932  4.69438 18.608    0.156
933  4.69229 18.612    0.156
934  4.69500 18.623    0.219
935  4.69458 18.629    0.344
936  4.69521 18.625    0.375
937  4.69625 18.623    0.375
938  4.69479 18.623    0.438
939  4.69458 18.622    0.500
940  4.69583 18.623    0.500
941  4.69479 18.619    0.500
942  4.69229 18.605    0.344
943  4.69000 18.588    0.188
944  4.69146 18.572    0.125
945  4.69000 18.569    0.094
946  4.68187 18.571    0.031
947  4.66688 18.575    0.031
948  4.65750 18.578    0.063
949  4.64375 18.579    0.125
950  4.64438 18.582    0.125
951  4.66563 18.588    0.188
952  4.66708 18.592    0.250
953  4.66917 18.592    0.125
954  4.66979 18.585    0.094
955  4.67646 18.584    0.094
956  4.66667 18.589    0.125
957  4.66500 18.590    0.250
958  4.66250 18.587    0.156
959  4.66146 18.587    0.156
960  4.67021 18.587    0.219
961  4.67333 18.596    0.281
962  4.67812 18.610    0.250
963  4.68063 18.615    0.219
964  4.67208 18.615    0.188
965  4.67104 18.611    0.063
966  4.67312 18.601    0.156
967  4.67812 18.597    0.156
968  4.67979 18.598    0.250
969  4.67917 18.593    0.281
970  4.67958 18.597    0.313
971  4.68750 18.602    0.281
972  4.68979 18.599    0.281
973  4.69083 18.588    0.250
974  4.69354 18.580    0.219
975  4.69333 18.582    0.219
976  4.69125 18.581    0.313
977  4.69062 18.573    0.406
978  4.69000 18.573    0.438
979  4.69021 18.588    0.438
980  4.69208 18.593    0.313
981  4.69229 18.592    0.156
982  4.69375 18.589    0.156
983  4.69229 18.582    0.250
984  4.69271 18.581    0.250
985  4.69083 18.587    0.281
986  4.69229 18.589    0.281
987  4.69104 18.577    0.375
988  4.68750 18.573    0.438
989  4.68792 18.581    0.438
990  4.69375 18.584    0.406
991  4.69521 18.583    0.406
992  4.69313 18.581    0.344
993  4.69062 18.580    0.250
994  4.69083 18.583    0.219
995  4.69062 18.587    0.125
996  4.69271 18.589    0.188
997  4.69229 18.583    0.219
998  4.69000 18.563    0.219
999  4.69167 18.546    0.219
1000  4.69354 18.540    0.219
1001  4.69479 18.551    0.188
1002  4.69438 18.561    0.219
1003  4.69417 18.555    0.219
1004  4.69438 18.553    0.219
1005  4.69458 18.555    0.219
1006  4.69458 18.551    0.250
1007  4.69438 18.551    0.250
1008  4.69375 18.557    0.188
1009  4.69250 18.567    0.125
1010  4.69438 18.577    0.125
1011  4.69417 18.582    0.219
1012  4.69292 18.584    0.250
1013  4.69250 18.585    0.250
1014  4.69271 18.584    0.250
1015  4.69229 18.582    0.281
1016  4.69167 18.579    0.281
1017  4.69125 18.577    0.281
1018  4.69187 18.576    0.250
1019  4.69354 18.581    0.219
1020  4.69333 18.580    0.094
1021  4.69292 18.573    0.031
1022  4.69062 18.572    0.156
1023  4.68917 18.578    0.188
1024  4.69000 18.584    0.250
1025  4.68813 18.587    0.313
1026  4.69229 18.592    0.250
1027  4.69292 18.591    0.250
1028  4.69167 18.588    0.219
1029  4.69187 18.586    0.250
1030  4.69229 18.578    0.219
1031  4.69229 18.569    0.125
1032  4.69271 18.565    0.125
1033  4.69250 18.570    0.063
1034  4.68562 18.571    0.063
1035  4.67667 18.567    0.125
1036  4.68042 18.576    0.313
1037  4.68813 18.593    0.344
1038  4.67708 18.593    0.250
1039  4.67396 18.596    0.094
1040  4.67354 18.606    0.000
1041  4.68292 18.614    0.063
1042  4.68687 18.605    0.031
1043  4.68021 18.588    0.000
1044  4.68771 18.580    0.094
1045  4.67896 18.577    0.156
1046  4.66458 18.576    0.281
1047  4.67875 18.577    0.375
1048  4.67667 18.582    0.469
1049  4.67729 18.582    0.375
1050  4.66062 18.579    0.250
1051  4.66583 18.576    0.031
1052  4.67625 18.576    0.031
1053  4.67146 18.579    0.031
1054  4.67250 18.590   -0.031
1055  4.64958 18.595    0.063
1056  4.64958 18.583    0.344
1057  4.62354 18.576    0.344
1058  4.60417 18.578    0.156
1059  4.55042 18.580    0.031
1060  4.56562 18.581    0.063
1061  4.49812 18.587    0.063
1062  4.51563 18.594    0.031
1063  4.56625 18.598    0.250
1064  4.56292 18.597    0.500
1065  4.57854 18.598    0.344
1066  4.59083 18.602    0.219
1067  4.56458 18.603    0.188
1068  4.56521 18.602    0.219
1069  4.57688 18.602    0.281
1070  4.57979 18.601    0.250
1071  4.58708 18.604    0.219
1072  4.60896 18.609    0.188
1073  4.65708 18.610    0.125
1074  4.66313 18.611    0.031
1075  4.66000 18.606    0.063
1076  4.65875 18.600    0.281
1077  4.66583 18.595    0.281
1078  4.66188 18.593    0.125
1079  4.66417 18.596    0.063
1080  4.65771 18.601    0.063
1081  4.66812 18.607    0.063
1082  4.67188 18.600    0.000
1083  4.66750 18.584    0.094
1084  4.65146 18.575    0.406
1085  4.66229 18.567    0.438
1086  4.65771 18.568    0.375
1087  4.64625 18.566    0.281
1088  4.63563 18.564    0.125
1089  4.63875 18.564    0.125
1090  4.64021 18.565    0.188
1091  4.63750 18.566    0.250
1092  4.64000 18.563    0.219
1093  4.63896 18.560    0.313
1094  4.63979 18.558    0.313
1095  4.65437 18.556    0.125
1096  4.64687 18.555    0.156
1097  4.65625 18.552    0.250
1098  4.66000 18.543    0.313
1099  4.67708 18.532    0.250
1100  4.67646 18.536    0.219
1101  4.67854 18.541    0.250
1102  4.67812 18.537    0.375
1103  4.67875 18.548    0.313
1104  4.67792 18.561    0.219
1105  4.67771 18.567    0.188
1106  4.68042 18.572    0.125
1107  4.68208 18.579    0.188
1108  4.68000 18.581    0.219
1109  4.68354 18.585    0.188
1110  4.68625 18.589    0.219
1111  4.68958 18.589    0.219
1112  4.69146 18.588    0.219
1113  4.69208 18.596    0.250
1114  4.67750 18.600    0.250
1115  4.66958 18.601    0.250
1116  4.66042 18.597    0.250
1117  4.65354 18.591    0.281
1118  4.63063 18.588    0.250
1119  4.62146 18.591    0.281
1120  4.65833 18.596    0.344
1121  4.65292 18.593    0.406
1122  4.67958 18.561    0.438
1123  4.68458 18.523    0.438
1124  4.68500 18.499    0.406
1125  4.68521 18.484    0.406
1126  4.68354 18.490    0.313
1127  4.68500 18.508    0.188
1128  4.68333 18.536    0.094
1129  4.68354 18.554    0.219
1130  4.68313 18.555    0.250
1131  4.68375 18.555    0.250
1132  4.67854 18.559    0.250
1133  4.67646 18.560    0.156
1134  4.66479 18.544    0.156
1135  4.60104 18.508    0.156
1136  4.56167 18.473    0.156
1137  4.63063 18.467    0.219
1138  4.62479 18.476    0.219
1139  4.59583 18.482    0.219
1140  4.63083 18.500    0.188
1141  4.62792 18.533    0.094
1142  4.66875 18.567    0.250
1143  4.67729 18.595    0.188
1144  4.63979 18.607    0.219
1145  4.58458 18.588    0.250
1146  4.55250 18.552    0.188
1147  4.48750 18.527    0.219
1148  4.46167 18.522    0.156
1149  4.65667 18.527    0.188
1150  4.66812 18.537    0.281
1151  4.67521 18.536    0.250
1152  4.66667 18.528    0.156
1153  4.66208 18.546    0.188
1154  4.66896 18.554    0.094
1155  4.67938 18.547    0.031
1156  4.68333 18.534    0.031
1157  4.68187 18.502    0.031
1158  4.68104 18.480    0.094
1159  4.68292 18.474    0.063
1160  4.68417 18.480    0.031
1161  4.68625 18.499    0.031
1162  4.68604 18.521    0.000
1163  4.68687 18.531    0.156
1164  4.68667 18.539    0.344
1165  4.68687 18.551    0.250
1166  4.68417 18.555    0.094
1167  4.68708 18.564    0.031
1168  4.68729 18.570    0.000
1169  4.68771 18.568    0.000
1170  4.64625 18.569    0.219
1171  4.64021 18.571    0.250
1172  4.63625 18.572    0.031
1173  4.64438 18.573    0.000
1174  4.65854 18.568    0.000
1175  4.67042 18.567   -0.031
1176  4.62229 18.565    0.219
1177  4.61250 18.563    0.438
1178  4.64042 18.565    0.375
1179  4.63833 18.578    0.281
1180  4.62583 18.594    0.156
1181  4.62271 18.607    0.063
1182  4.60229 18.613    0.031
1183  4.59375 18.610    0.063
1184  4.58563 18.604    0.063
1185  4.59542 18.596    0.031
1186  4.57417 18.582    0.031
1187  4.57458 18.569    0.125
1188  4.53125 18.561    0.375
1189  4.55958 18.551    0.313
1190  4.59458 18.548    0.219
1191  4.60792 18.556    0.125
1192  4.62271 18.570    0.031
1193  4.62583 18.578    0.031
1194  4.62500 18.582    0.063
1195  4.58417 18.587    0.063
1196  4.63063 18.600    0.063
1197  4.63979 18.609    0.031
1198  4.62437 18.614    0.000
1199  4.65917 18.620    0.063
1200  4.66417 18.626    0.281
1201  4.66708 18.629    0.250
1202  4.66583 18.635    0.156
1203  4.65937 18.643    0.094
1204  4.66812 18.648    0.156
1205  4.66146 18.650    0.188
1206  4.66042 18.646    0.188
1207  4.66917 18.630    0.281
1208  4.66563 18.619    0.469
1209  4.67188 18.616    0.375
1210  4.66875 18.623    0.219
1211  4.66771 18.636    0.188
1212  4.66750 18.645    0.219
1213  4.66750 18.652    0.188
1214  4.66688 18.655    0.219
1215  4.67771 18.657    0.281
1216  4.68229 18.659    0.406
1217  4.68063 18.661    0.469
1218  4.67833 18.661    0.500
1219  4.67917 18.659    0.500
1220  4.69583 18.660    0.500
1221  4.70000 18.664    0.563
1222  4.70146 18.665    0.563
1223  4.70250 18.668    0.531
1224  4.70250 18.670    0.500
1225  4.70146 18.667    0.469
1226  4.70125 18.666    0.344
1227  4.69625 18.663    0.250
1228  4.69583 18.659    0.156
1229  4.69833 18.659    0.188
1230  4.70062 18.656    0.219
1231  4.70000 18.653    0.250
1232  4.70083 18.654    0.281
1233  4.70062 18.654    0.281
1234  4.70021 18.656    0.375
1235  4.70000 18.662    0.500
1236  4.70021 18.668    0.531
1237  4.70062 18.670    0.500
1238  4.70167 18.670    0.344
1239  4.70083 18.669    0.219
1240  4.70021 18.669    0.219
1241  4.69917 18.665    0.375
1242  4.70146 18.661    0.406
1243  4.70500 18.663    0.406
1244  4.70583 18.665    0.406
1245  4.70563 18.671    0.406
1246  4.70521 18.681    0.344
1247  4.70458 18.686    0.313
1248  4.70479 18.685    0.313
1249  4.70458 18.674    0.313
1250  4.70458 18.672    0.500
1251  4.70417 18.670    0.656
1252  4.70146 18.666    0.719
1253  4.69562 18.663    0.625
1254  4.69187 18.634    0.563
1255  4.69250 18.613    0.438
1256  4.69271 18.611    0.406
1257  4.69167 18.619    0.375
1258  4.69250 18.631    0.313
1259  4.69187 18.641    0.250
1260  4.69396 18.648    0.156
1261  4.69396 18.644    0.219
1262  4.69208 18.622    0.188
1263  4.69167 18.603    0.156
1264  4.68771 18.594    0.125
1265  4.68063 18.589    0.156
1266  4.67521 18.592    0.188
1267  4.67812 18.598    0.188
1268  4.69104 18.603    0.188
1269  4.69458 18.601    0.156
1270  4.69500 18.595    0.188
1271  4.69562 18.592    0.188
1272  4.69542 18.596    0.094
1273  4.69542 18.595    0.031
1274  4.69000 18.592    0.094
1275  4.67458 18.582    0.281
1276  4.66500 18.565    0.313
1277  4.66396 18.553    0.250
1278  4.67771 18.551    0.125
1279  4.67583 18.548    0.063
1280  4.67583 18.540    0.125
1281  4.67417 18.533    0.219
1282  4.67667 18.534    0.219
1283  4.67312 18.545    0.188
1284  4.67458 18.563    0.156
1285  4.67500 18.557    0.344
1286  4.67521 18.532    0.344
1287  4.67500 18.506    0.188
1288  4.67146 18.506    0.125
1289  4.63625 18.523    0.063
1290  4.65771 18.534    0.125
1291  4.67000 18.544    0.188
1292  4.66646 18.553    0.125
1293  4.66833 18.549    0.250
1294  4.66833 18.532    0.500
1295  4.67479 18.519    0.469
1296  4.67687 18.520    0.375
1297  4.67708 18.539    0.375
1298  4.67771 18.556    0.344
1299  4.67792 18.562    0.375
1300  4.68250 18.565    0.406
1301  4.68250 18.570    0.375
1302  4.68521 18.570    0.219
1303  4.68375 18.564    0.156
1304  4.68438 18.565    0.281
1305  4.68417 18.571    0.281
1306  4.68375 18.564    0.281
1307  4.68354 18.552    0.313
1308  4.68521 18.545    0.375
1309  4.68438 18.552    0.344
1310  4.68292 18.565    0.281
1311  4.68896 18.576    0.094
1312  4.68562 18.578    0.188
1313  4.68813 18.583    0.188
1314  4.68771 18.580    0.188
1315  4.68750 18.576    0.219
1316  4.68896 18.578    0.281
1317  4.69250 18.588    0.219
1318  4.69125 18.600    0.156
1319  4.69083 18.612    0.063
1320  4.69104 18.623    0.063
1321  4.69250 18.626    0.188
1322  4.69187 18.628    0.250
1323  4.69187 18.627    0.250
1324  4.69187 18.627    0.250
1325  4.69167 18.629    0.344
1326  4.69417 18.634    0.375
1327  4.69646 18.635    0.344
1328  4.69729 18.631    0.250
1329  4.69708 18.628    0.188
1330  4.69646 18.627    0.188
1331  4.69625 18.627    0.188
1332  4.69688 18.626    0.219
1333  4.69667 18.625    0.250
1334  4.69688 18.628    0.375
1335  4.69583 18.634    0.531
1336  4.69917 18.637    0.594
1337  4.70062 18.621    0.594
1338  4.70021 18.621    0.500
1339  4.69958 18.631    0.375
1340  4.69979 18.636    0.219
1341  4.70021 18.636    0.219
1342  4.70104 18.637    0.344
1343  4.70104 18.641    0.281
1344  4.70104 18.645    0.281
1345  4.70062 18.651    0.281
1346  4.70021 18.649    0.281
1347  4.69896 18.637    0.313
1348  4.70042 18.627    0.406
1349  4.70021 18.630    0.531
1350  4.70021 18.637    0.563
1351  4.69750 18.639    0.438
1352  4.69729 18.632    0.250
1353  4.69688 18.624    0.219
1354  4.69562 18.614    0.313
1355  4.69438 18.592    0.313
1356  4.69625 18.594    0.375
1357  4.69500 18.610    0.438
1358  4.69521 18.614    0.406
1359  4.69396 18.613    0.406
1360  4.69458 18.615    0.375
1361  4.69562 18.620    0.344
1362  4.69708 18.622    0.281
1363  4.69771 18.622    0.250
1364  4.69792 18.626    0.313
1365  4.69625 18.634    0.375
1366  4.69562 18.643    0.406
1367  4.69917 18.649    0.469
1368  4.69813 18.652    0.500
1369  4.70000 18.653    0.469
1370  4.70062 18.653    0.469
1371  4.70125 18.657    0.500
1372  4.70000 18.660    0.563
1373  4.70000 18.664    0.594
1374  4.69521 18.665    0.500
1375  4.65625 18.666    0.406
1376  4.64250 18.669    0.313
1377  4.62979 18.672    0.281
1378  4.63563 18.674    0.219
1379  4.66292 18.676    0.219
1380  4.65104 18.680    0.219
1381  4.66875 18.682    0.250
1382  4.64854 18.677    0.188
1383  4.66500 18.659    0.188
1384  4.67312 18.641    0.313
1385  4.67917 18.643    0.406
1386  4.65188 18.658    0.625
1387  4.68125 18.671    0.594
1388  4.68250 18.675    0.406
1389  4.68729 18.678    0.344
1390  4.68875 18.681    0.156
1391  4.68625 18.685    0.094
1392  4.69021 18.689    0.094
1393  4.69187 18.682    0.094
1394  4.68750 18.659    0.094
1395  4.68562 18.632    0.094
1396  4.69208 18.622    0.031
1397  4.69417 18.630    0.031
1398  4.69542 18.633    0.031
1399  4.68979 18.626    0.031
1400  4.67188 18.628    0.000
1401  4.64042 18.632    0.156
1402  4.64646 18.628    0.344
1403  4.59833 18.616    0.281
1404  4.60833 18.610    0.156
1405  4.61437 18.607    0.031
1406  4.58771 18.609    0.000
1407  4.53417 18.613    0.031
1408  4.49583 18.624    0.000
1409  4.50958 18.645    0.000
1410  4.07417 18.666    0.031
1411  3.70417 18.670    0.313
1412  4.08396 18.669    0.281
1413  3.82833 18.675    0.094
1414  3.98021 18.661    0.031
1415  4.45333 18.637    0.063
1416  4.42104 18.624    0.000
1417  4.38083 18.619    0.000
1418  4.44854 18.615    0.031
1419  4.50208 18.618   -0.031
1420  4.38979 18.631    0.031
1421  4.30729 18.640    0.375
1422  4.22708 18.649    0.500
1423  4.39021 18.659    0.469
1424  4.50750 18.670    0.375
1425  4.63396 18.678    0.219
1426  4.61854 18.681    0.125
1427  4.58604 18.682    0.031
1428  4.56854 18.682    0.063
1429  4.61792 18.678    0.063
1430  4.61708 18.671    0.094
1431  4.60896 18.668    0.063
1432  4.65604 18.667    0.125
1433  4.66833 18.666    0.313
1434  4.66125 18.668    0.281
1435  4.67250 18.669    0.250
1436  4.66563 18.668    0.094
1437  4.66563 18.670    0.063
1438  4.68208 18.672    0.156
1439  4.67021 18.674    0.188
1440  4.68000 18.676    0.188
1441  4.68250 18.676    0.250
1442  4.68458 18.677    0.406
1443  4.68625 18.687    0.281
1444  4.68417 18.692    0.188
1445  4.68208 18.694    0.125
1446  4.68208 18.696    0.188
1447  4.68187 18.698    0.219
1448  4.68187 18.703    0.281
1449  4.68021 18.706    0.375
1450  4.68625 18.707    0.344
1451  4.69813 18.708    0.281
1452  4.69521 18.706    0.156
1453  4.69229 18.702    0.156
1454  4.69250 18.702    0.250
1455  4.69187 18.704    0.250
1456  4.69000 18.707    0.313
1457  4.69688 18.706    0.375
1458  4.69833 18.703    0.500
1459  4.69521 18.701    0.438
1460  4.69604 18.701    0.406
1461  4.70042 18.700    0.313
1462  4.70333 18.699    0.250
1463  4.69875 18.695    0.313
1464  4.69813 18.692    0.344
1465  4.70125 18.691    0.406
1466  4.70354 18.693    0.406
1467  4.70437 18.696    0.375
1468  4.70375 18.694    0.469
1469  4.70375 18.681    0.594
1470  4.70396 18.662    0.531
1471  4.70229 18.643    0.438
1472  4.70167 18.631    0.344
1473  4.70208 18.621    0.344
1474  4.70229 18.624    0.375
1475  4.70208 18.651    0.375
1476  4.70229 18.676    0.344
1477  4.70229 18.683    0.313
1478  4.70208 18.685    0.438
1479  4.70229 18.687    0.500
1480  4.70208 18.689    0.406
1481  4.70229 18.688    0.281
1482  4.70229 18.687    0.250
1483  4.70229 18.687    0.250
1484  4.70250 18.685    0.219
1485  4.70250 18.679    0.219
1486  4.70208 18.675    0.250
1487  4.70188 18.668    0.281
1488  4.70208 18.659    0.313
1489  4.70333 18.656    0.313
1490  4.70333 18.661    0.344
1491  4.70333 18.674    0.250
1492  4.70333 18.680    0.344
1493  4.69604 18.669    0.594
1494  4.69208 18.631    0.688
1495  4.69979 18.601    0.594
1496  4.69833 18.599    0.531
1497  4.69688 18.608    0.469
1498  4.69646 18.617    0.375
1499  4.69729 18.619    0.375
1500  4.69667 18.614    0.406
1501  4.69562 18.599    0.344
1502  4.69562 18.583    0.281
1503  4.69396 18.577    0.250
1504  4.69333 18.581    0.219
1505  4.69396 18.589    0.156
1506  4.69417 18.591    0.188
1507  4.69458 18.597    0.188
1508  4.69417 18.606    0.219
1509  4.69333 18.614    0.281
1510  4.69333 18.620    0.281
1511  4.69292 18.616    0.250
1512  4.68958 18.599    0.344
1513  4.68396 18.591    0.469
1514  4.67417 18.589    0.313
1515  4.66688 18.588    0.219
1516  4.66021 18.595    0.188
1517  4.66812 18.597    0.156
1518  4.67583 18.591    0.125
1519  4.67958 18.587    0.031
1520  4.62042 18.587    0.063
1521  4.55042 18.587    0.188
1522  4.54854 18.579    0.375
1523  4.63104 18.579    0.219
1524  4.67604 18.583    0.156
1525  4.68167 18.578    0.125
1526  4.67625 18.566    0.156
1527  4.67812 18.560    0.313
1528  4.67542 18.561    0.313
1529  4.67250 18.561    0.313
1530  4.67563 18.564    0.281
1531  4.67875 18.576    0.156
1532  4.67417 18.591    0.031
1533  4.68500 18.600    0.031
1534  4.68417 18.608    0.094
1535  4.68187 18.602    0.094
1536  4.68813 18.599    0.188
1537  4.68938 18.594    0.313
1538  4.68896 18.580    0.219
1539  4.68875 18.577    0.063
1540  4.69062 18.579    0.031
1541  4.68583 18.578    0.000
1542  4.68521 18.581    0.000
1543  4.61688 18.584    0.156
1544  4.54396 18.589    0.375
1545  4.56104 18.594    0.406
1546  4.53937 18.600    0.313
1547  4.56250 18.607    0.125
1548  4.54563 18.614    0.063
1549  4.59042 18.620    0.094
1550  4.58854 18.625    0.125
1551  4.58646 18.630    0.156
1552  4.56792 18.633    0.313
1553  4.57875 18.631    0.281
1554  4.60438 18.626    0.156
1555  4.61771 18.626    0.125
1556  4.60979 18.630    0.219
1557  4.61854 18.630    0.250
1558  4.64146 18.623    0.281
1559  4.64063 18.619    0.313
1560  4.62937 18.622    0.469
1561  4.64438 18.625    0.406
1562  4.66208 18.628    0.313
1563  4.65479 18.630    0.250
1564  4.64813 18.633    0.188
1565  4.63958 18.640    0.188
1566  4.63750 18.645    0.188
1567  4.65833 18.647    0.188
1568  4.66354 18.649    0.188
1569  4.66563 18.650    0.188
1570  4.66792 18.648    0.313
1571  4.66271 18.652    0.438
1572  4.64854 18.657    0.531
1573  4.65437 18.658    0.469
1574  4.64583 18.647    0.375
1575  4.67354 18.634    0.313
1576  4.68500 18.630    0.188
1577  4.68438 18.629    0.219
1578  4.67708 18.625    0.219
1579  4.67708 18.623    0.219
1580  4.68042 18.619    0.188
1581  4.67917 18.616    0.281
1582  4.67938 18.613    0.188
1583  4.67979 18.614    0.219
1584  4.67729 18.619    0.250
1585  4.68208 18.624    0.219
1586  4.68125 18.629    0.125
1587  4.67375 18.634    0.094
1588  4.67104 18.627    0.313
1589  4.67292 18.621    0.406
1590  4.66958 18.622    0.313
1591  4.66729 18.630    0.219
1592  4.66917 18.636    0.156
1593  4.66958 18.629    0.031
1594  4.65771 18.601   -0.031
1595  4.64604 18.585   -0.063
1596  3.81021 18.595    0.031
1597  2.84563 18.611    0.594
1598  3.17250 18.614    0.750
1599  4.11000 18.595    0.531
1600  4.41146 18.565    0.469
1601  4.41875 18.556    0.438
1602  4.44792 18.552    0.375
1603  4.07521 18.554    0.250
1604  2.99125 18.562    0.281
1605  2.72104 18.564    0.219
1606  2.72167 18.564    0.313
1607  2.54062 18.564    0.250
1608  2.77396 18.562    0.219
1609  2.65604 18.559    0.281
1610  3.40104 18.558    0.219
1611  3.93104 18.564    0.156
1612  3.97896 18.572    0.156
1613  4.02042 18.579    0.125
1614  4.01958 18.582    0.094
1615  3.84771 18.581    0.125
1616  3.75542 18.578    0.094
1617  3.34292 18.573    0.000
1618  3.63437 18.559    0.000
1619  3.73083 18.541    0.031
1620  3.38479 18.539    0.125
1621  3.22292 18.551    0.250
1622  3.15208 18.563    0.375
1623  3.04646 18.576    0.469
1624  3.04375 18.584    0.469
1625  2.78271 18.587    0.438
1626  3.02312 18.591    0.375
1627  3.35083 18.601    0.438
1628  3.85646 18.609    0.406
1629  4.24062 18.614    0.438
1630  4.47083 18.616    0.469
1631  4.57000 18.611    0.500
1632  4.64063 18.599    0.469
1633  4.63021 18.588    0.344
1634  4.63292 18.576    0.156
1635  4.63542 18.574    0.063
1636  4.61208 18.578    0.063
1637  4.54812 18.579    0.031
1638  4.43104 18.568    0.031
1639  4.02896 18.563   -0.063
1640  4.12750 18.566    0.063
1641  4.42208 18.570    0.438
1642  4.51187 18.572    0.563
1643  4.47125 18.568    0.281
1644  4.46312 18.566    0.031
1645  4.42396 18.568    0.031
1646  4.47104 18.573    0.000
1647  4.39979 18.577    0.000
1648  4.25188 18.577    0.000
1649  4.28146 18.577    0.094
1650  4.26208 18.575    0.375
1651  4.38396 18.571    0.406
1652  4.28167 18.567    0.188
1653  4.43292 18.566    0.063
1654  4.38208 18.571    0.000
1655  4.36896 18.576   -0.031
1656  4.38604 18.581    0.094
1657  4.33312 18.586    0.250
1658  4.44187 18.587    0.094
1659  4.52146 18.587    0.031
1660  4.38146 18.589    0.000
1661  4.23250 18.594    0.000
1662  4.21188 18.590    0.000
1663  4.24646 18.577    0.250
1664  4.11313 18.565    0.375
1665  4.19292 18.563    0.156
1666  4.31771 18.566    0.031
1667  4.46125 18.565    0.031
1668  4.49354 18.563    0.063
1669  4.49875 18.561    0.094
1670  4.51229 18.561    0.125
1671  4.50854 18.560    0.344
1672  4.53937 18.558    0.375
1673  4.56354 18.559    0.188
1674  4.56083 18.565    0.094
1675  4.57667 18.569    0.156
1676  4.56417 18.569    0.156
1677  4.55354 18.568    0.063
1678  4.58792 18.574    0.125
1679  4.60687 18.580    0.156
1680  4.61000 18.579    0.250
1681  4.60396 18.576    0.344
1682  4.64542 18.576    0.281
1683  4.64792 18.586    0.125
1684  4.62937 18.594    0.031
1685  4.63063 18.599    0.125
1686  4.67125 18.607    0.250
1687  4.67812 18.602    0.281
1688  4.67771 18.588    0.281
1689  4.67708 18.591    0.250
1690  4.67938 18.579    0.250
1691  4.67958 18.565    0.281
1692  4.67938 18.560    0.250
1693  4.68063 18.561    0.250
1694  4.68021 18.570    0.156
1695  4.68063 18.583    0.125
1696  4.68208 18.591    0.188
1697  4.68083 18.596    0.219
1698  4.67938 18.608    0.250
1699  4.67896 18.619    0.344
1700  4.68333 18.629    0.438
1701  4.69354 18.642    0.438
1702  4.69708 18.639    0.438
1703  4.69792 18.641    0.406
1704  4.69833 18.652    0.406
1705  4.69771 18.661    0.438
1706  4.69646 18.658    0.375
1707  4.69625 18.644    0.344
1708  4.69583 18.625    0.406
1709  4.69229 18.622    0.344
1710  4.67021 18.628    0.250
1711  4.67229 18.642    0.125
1712  4.67979 18.650    0.063
1713  4.69146 18.655    0.094
1714  4.69208 18.661    0.031
1715  4.68479 18.662    0.000
1716  4.38333 18.647    0.031
1717  3.81375 18.642   -0.031
1718  3.70812 18.636    0.094
1719  4.12208 18.609    0.344
1720  4.50625 18.606    0.438
1721  4.23979 18.599    0.375
1722  4.17083 18.599    0.188
1723  4.17604 18.621    0.000
1724  4.35396 18.626    0.031
1725  4.66979 18.615    0.031
1726  4.68125 18.608    0.063
1727  4.67708 18.603    0.250
1728  4.68083 18.603    0.375
1729  4.67521 18.606    0.219
1730  4.67687 18.597    0.000
1731  4.68438 18.589    0.125
1732  4.67854 18.595    0.156
1733  4.67563 18.603    0.188
1734  4.68042 18.615    0.313
1735  4.68396 18.624    0.344
1736  4.67583 18.631    0.219
1737  4.67271 18.625    0.063
1738  4.67708 18.631    0.063
1739  4.67417 18.636    0.000
1740  4.63687 18.634    0.000
1741  4.62063 18.635    0.000
1742  4.59604 18.630    0.250
1743  4.58208 18.624    0.438
1744  4.51646 18.624    0.344
1745  3.19250 18.621    0.125
1746  2.78646 18.621    0.000
1747  2.86854 18.621    0.000
1748  1.73417 18.612    0.031
1749  2.90000 18.599    0.000
1750  2.92021 18.587   -0.031
1751  2.64417 18.583    0.063
1752  4.48354 18.583    0.469
1753  4.57750 18.571    0.563
1754  4.57625 18.559    0.406
1755  4.54771 18.575    0.188
1756  4.57458 18.600    0.063
1757  4.63563 18.606    0.000
1758  4.62312 18.594    0.031
1759  4.62563 18.585    0.031
1760  4.62688 18.582    0.000
1761  4.60708 18.583    0.063
1762  4.59292 18.581    0.313
1763  4.62083 18.572    0.469
1764  4.64229 18.568    0.688
1765  4.50542 18.574    0.531
1766  3.74500 18.572    0.156
1767  4.17229 18.569   -0.031
1768  4.25500 18.561    0.000
1769  4.05563 18.546    0.031
1770  4.07375 18.540    0.063
1771  4.14521 18.540    0.313
1772  4.17917 18.541    0.469
1773  3.85396 18.542    0.281
1774  3.91104 18.546    0.031
1775  4.19667 18.560    0.031
1776  4.55333 18.583    0.031
1777  4.66042 18.604    0.031
1778  4.68771 18.621    0.031
1779  4.68896 18.636    0.063
1780  4.66917 18.647    0.063
1781  4.65396 18.655    0.063
1782  4.62750 18.655    0.125
1783  4.63625 18.653    0.188
1784  4.68375 18.654    0.188
1785  4.69375 18.660    0.219
1786  4.69792 18.663    0.281
1787  4.69792 18.662    0.313
1788  4.69688 18.649    0.219
1789  4.68813 18.639    0.156
1790  4.67750 18.625    0.156
1791  4.68021 18.614    0.250
1792  4.68667 18.612    0.281
1793  4.67708 18.610    0.219
1794  4.67812 18.607    0.094
1795  4.67854 18.608    0.063
1796  4.67896 18.609    0.031
1797  4.65375 18.613    0.031
1798  3.77646 18.613   -0.031
1799  3.76479 18.612    0.031
1800  4.37000 18.616    0.375
1801  4.48229 18.625    0.469
1802  3.84208 18.630    0.219
1803  2.92417 18.632    0.031
1804  3.23125 18.634    0.031
1805  4.32833 18.635    0.031
1806  4.35667 18.634    0.031
1807  4.30208 18.636    0.000
1808  4.34187 18.635    0.031
1809  4.42292 18.638    0.250
1810  4.58250 18.647    0.438
1811  4.59146 18.654    0.375
1812  4.59187 18.660    0.188
1813  4.60667 18.662    0.000
1814  4.61854 18.663    0.031
1815  4.62146 18.663    0.000
1816  4.61771 18.661    0.031
1817  4.62542 18.658    0.281
1818  4.63375 18.660    0.344
1819  4.62771 18.658    0.031
1820  4.64063 18.649   -0.063
1821  4.63583 18.641    0.031
1822  4.63312 18.634    0.031
1823  4.66083 18.631    0.031
1824  4.65750 18.633    0.094
1825  4.64542 18.636    0.250
1826  4.64125 18.637    0.188
1827  4.64854 18.638    0.063
1828  4.64708 18.641    0.031
1829  4.64750 18.647    0.063
1830  4.64042 18.650    0.156
1831  4.64479 18.649    0.250
1832  4.64146 18.649    0.469
1833  4.65250 18.648    0.344
1834  4.64938 18.643    0.094
1835  4.64896 18.637    0.031
1836  4.65958 18.635    0.094
1837  4.65813 18.627    0.125
1838  4.66146 18.623    0.219
1839  4.66563 18.625    0.156
1840  4.66500 18.630    0.094
1841  4.66917 18.637    0.063
1842  4.68000 18.639    0.125
1843  4.67063 18.634    0.156
1844  4.64125 18.630    0.125
1845  4.65646 18.625    0.250
1846  4.67625 18.621    0.406
1847  4.68500 18.614    0.344
1848  4.68208 18.612    0.188
1849  4.68187 18.621    0.188
1850  4.67917 18.629    0.188
1851  4.68042 18.636    0.219
1852  4.67938 18.640    0.188
1853  4.68292 18.645    0.219
1854  4.68208 18.646    0.188
1855  4.68146 18.638    0.125
1856  4.68667 18.635    0.031
1857  4.67833 18.641    0.031
1858  4.67812 18.637    0.031
1859  4.65792 18.629    0.000
1860  4.59333 18.627    0.031
1861  4.62917 18.627    0.281
1862  4.40083 18.638    0.500
1863  2.86479 18.651    0.250
1864  2.66667 18.657    0.031
1865  4.45375 18.654    0.031
1866  4.39583 18.651    0.031
1867  4.42083 18.647    0.031
1868  4.44458 18.648    0.000
1869  4.44062 18.652    0.000
1870  4.45583 18.652    0.063
1871  4.47354 18.650    0.063
1872  4.50854 18.640    0.031
1873  4.31604 18.626    0.000
1874  3.42292 18.623    0.000
1875  3.03229 18.631    0.000
1876  2.42854 18.638    0.000
1877  2.70187 18.638    0.000
1878  3.36625 18.638    0.031
1879  2.70562 18.638    0.063
1880  1.24313 18.642    0.031
1881  1.96625 18.642    0.063
1882  2.96271 18.637    0.094
1883  2.64438 18.631    0.063
1884  2.57563 18.629    0.063
1885  2.54479 18.628    0.063
1886  3.25083 18.629    0.031
1887  3.91792 18.629    0.000
1888  4.55750 18.631    0.000
1889  3.97521 18.639    0.000
1890  2.55417 18.652    0.031
1891  1.16896 18.658    0.031
1892  0.88771 18.669    0.000
1893  0.68792 18.685    0.000
1894  0.64125 18.686    0.000
1895  0.59896 18.682    0.000
1896  0.54458 18.682    0.000
1897  0.46667 18.687    0.000
1898  0.40854 18.693    0.000
1899  0.30000 18.695    0.000
1900  0.26313 18.693    0.000
1901  0.22625 18.687    0.000
1902  0.19417 18.682    0.000
1903  0.17250 18.678   -0.031
1904  0.15396 18.675   -0.031
1905  0.12687 18.674    0.000
1906  0.09625 18.672    0.000
1907  0.00146 18.669    0.000
1908  0.00000 18.667    0.000
1909  0.00000 18.664    0.000
1910  0.00000 18.662    0.000
1911  0.00000 18.662    0.000
1912  0.00000 18.662    0.000
1913  0.00000 18.658    0.000
1914  0.00000 18.655    0.000
1915  0.00000 18.654    0.000
1916  0.00000 18.655    0.000
1917  0.00000 18.657    0.000
1918  0.00000 18.658    0.000
1919  0.00000 18.656    0.000
1920  0.00000 18.654    0.000
1921  0.00000 18.655    0.000
1922  0.00000 18.656   -0.031
1923  0.00000 18.655    0.000
1924  0.00000 18.655    0.000
1925  0.00000 18.654   -0.031
1926  0.00000 18.652    0.000
1927  0.00000 18.650    0.000
1928  0.00000 18.647    0.000
1929  0.00000 18.645   -0.031
1930  0.00000 18.645    0.000
1931  0.00000 18.648    0.000
1932  0.00000 18.652    0.000
1933  0.00000 18.654    0.000
1934  0.00000 18.655    0.000
1935  0.00000 18.654    0.000
1936  0.00000 18.654    0.000
1937  0.00000 18.654    0.000
1938  0.00000 18.653    0.031
1939  0.00000 18.651    0.000
1940  0.00000 18.649    0.000
1941  0.00000 18.649    0.000
1942  0.00000 18.650   -0.031
1943  0.00000 18.650    0.000
1944  0.00000 18.646    0.000
1945  0.00000 18.637   -0.031
1946  0.00000 18.627    0.000
1947  0.00000 18.617    0.031
1948  0.00000 18.613    0.000
1949  0.00000 18.613   -0.031
1950  0.00000 18.611    0.000
1951  0.00000 18.606    0.000
1952  0.00000 18.604    0.031
1953  0.00000 18.602    0.000
1954  0.00000 18.602    0.000
1955  0.00000 18.603    0.000
1956  0.00000 18.604    0.000
1957  0.00000 18.605    0.000
1958  0.00000 18.605    0.000
1959  0.00000 18.604    0.000
1960  0.00000 18.604    0.000
1961  0.00000 18.603   -0.031
1962  0.00000 18.603    0.000
1963  0.00000 18.604    0.000
1964  0.00000 18.606    0.000
1965  0.00000 18.607    0.031
1966  0.00000 18.606    0.031
1967  0.00000 18.605    0.000
1968  0.00000 18.604    0.031
1969  0.00000 18.604    0.000
1970  0.00000 18.604    0.000
1971  0.00000 18.603    0.000
1972  0.00000 18.605    0.000
1973  0.00000 18.607    0.000
1974  0.00000 18.609    0.000
1975  0.00000 18.611    0.000
1976  0.00000 18.611    0.000
1977  0.00000 18.609    0.000
1978  0.00000 18.605   -0.031
1979  0.00000 18.602    0.000
1980  0.00000 18.604    0.000
1981  0.00000 18.608    0.000
1982  0.00000 18.610    0.000
1983  0.00000 18.610    0.000
1984  0.00000 18.610    0.000
1985  0.00000 18.607    0.000
1986  0.00000 18.602    0.000
1987  0.00000 18.600    0.000
1988  0.00000 18.601    0.000
1989  0.00000 18.603    0.000
1990  0.00000 18.606    0.000
1991  0.00000 18.610    0.000
1992  0.00000 18.611    0.000
1993  0.00000 18.608    0.031
1994  0.00000 18.607    0.000
1995  0.00000 18.611    0.000
1996  0.00000 18.613    0.000
1997  0.00000 18.611    0.000
1998  0.00000 18.608    0.000
1999  0.00000 18.604    0.000
2000  0.00000 18.602    0.000
2001  0.00000 18.600    0.000
2002  0.00000 18.599    0.000
2003  0.00000 18.599    0.000
2004  0.00000 18.601    0.000
2005  0.00000 18.605    0.000
2006  0.00000 18.610    0.000
2007  0.00000 18.615   -0.031
2008  0.00000 18.618   -0.031
2009  0.00000 18.621   -0.031
2010  0.00000 18.623    0.000
2011  0.00000 18.616    0.000
2012  0.00000 18.610    0.000
2013  0.00000 18.607    0.000
2014  0.00000 18.604    0.000
2015  0.00000 18.601    0.000
2016  0.00000 18.599    0.000
2017  0.00000 18.597    0.000
2018  0.00000 18.595    0.000
2019  0.00000 18.593    0.000
2020  0.00000 18.593    0.000
2021  0.00000 18.595    0.000
2022  0.00000 18.598   -0.031
2023  0.00000 18.599   -0.031
2024  0.00000 18.594    0.000
2025  0.00000 18.592   -0.031
2026  0.00000 18.593    0.000
2027  0.00000 18.595   -0.031
2028  0.00000 18.595    0.000
2029  0.00000 18.595    0.000
2030  0.00000 18.595    0.000
2031  0.00000 18.594    0.000
2032  0.00000 18.592    0.000
2033  0.00000 18.590    0.000
2034  0.00000 18.589    0.000
2035  0.00000 18.587   -0.031
2036  0.00000 18.586    0.000
2037  0.00000 18.586   -0.031
2038  0.00000 18.587   -0.031
2039  0.00000 18.589   -0.031
2040  0.00000 18.581   -0.031
2041  0.00000 18.572   -0.031
2042  0.00000 18.567   -0.031
2043  0.00000 18.563    0.000
2044  0.00000 18.560    0.000
2045  0.00000 18.557    0.000
2046  0.00000 18.555    0.000
2047  0.00000 18.553    0.000
2048  0.00000 18.551    0.000
2049  0.00000 18.548    0.000
2050  0.00000 18.547    0.000
2051  0.00000 18.547    0.000
2052  0.00000 18.546   -0.031
2053  0.00000 18.544    0.000
2054  0.00000 18.543    0.000
2055  0.00000 18.543    0.000
2056  0.00000 18.545    0.000
2057  0.00000 18.556    0.000
2058  0.00000 18.572    0.000
2059  0.00000 18.586    0.031
2060  0.00000 18.599    0.000
2061  0.00000 18.610    0.000
2062  0.00000 18.617    0.000
2063  0.00000 18.622    0.000
2064  0.00000 18.627    0.000
2065  0.00000 18.630    0.000
2066  0.00000 18.632    0.000
2067  0.00000 18.633    0.000
2068  0.00000 18.634    0.000
2069  0.00000 18.636    0.000
2070  0.00000 18.638   -0.031
2071  0.00000 18.638    0.000
2072  0.00000 18.638    0.000
2073  0.00000 18.638    0.000
2074  0.00000 18.638    0.000
2075  0.00000 18.638    0.031
2076  0.00000 18.637    0.000
2077  0.00000 18.636    0.000
2078  0.00000 18.636    0.031
2079  0.00000 18.636    0.000
2080  0.00000 18.636   -0.031
2081  0.00000 18.636    0.000
2082  0.00000 18.636    0.000
2083  0.00000 18.637    0.031
2084  0.00000 18.635    0.000
2085  0.00000 18.632    0.000
2086  0.00000 18.632    0.000
2087  0.00000 18.631    0.000
2088  0.00000 18.630    0.000
2089  0.00000 18.630    0.000
2090  0.00000 18.630    0.000
2091  0.00000 18.631    0.000
2092  0.00000 18.633    0.000
2093  0.00000 18.633    0.000
2094  0.00000 18.633    0.000
2095  0.00000 18.632    0.031
2096  0.00000 18.631    0.000
2097  0.00000 18.629    0.000
2098  0.00000 18.628    0.031
2099  0.00000 18.628    0.031
2100  0.00000 18.627    0.031
2101  0.00000 18.628    0.000
2102  0.00000 18.629    0.031
2103  0.00000 18.629    0.000
2104  0.00000 18.629    0.000
2105  0.00000 18.630    0.000
2106  0.00000 18.632    0.000
2107  0.00000 18.633    0.000
2108  0.00000 18.634    0.000
2109  0.00000 18.635    0.031
2110  0.00000 18.637    0.031
2111  0.00000 18.639    0.031
2112  0.00000 18.642    0.031
2113  0.00000 18.644    0.000
2114  0.00000 18.646    0.000
2115  0.00000 18.649    0.000
2116  0.00000 18.651    0.000
2117  0.00000 18.653    0.000
2118  0.00000 18.657   -0.031
2119  0.00000 18.661    0.000
2120  0.00000 18.665    0.000
2121  0.00000 18.671    0.000
2122  0.00000 18.675    0.000
2123  0.00000 18.678    0.000
2124  0.00000 18.682    0.000
2125  0.00000 18.685    0.000
2126  0.00000 18.688    0.000
2127  0.00000 18.691    0.000
2128  0.00000 18.694    0.000
2129  0.00000 18.698    0.000
2130  0.00000 18.702    0.000
2131  0.00000 18.706    0.000
2132  0.00000 18.709    0.000
2133  0.00000 18.713    0.000
2134  0.00000 18.714   -0.031
2135  0.00000 18.716   -0.031
2136  0.00000 18.719    0.000
2137  0.00000 18.723    0.000
2138  0.00000 18.726    0.000
2139  0.00000 18.728    0.000
2140  0.00000 18.723    0.000
2141  0.00000 18.700    0.000
2142  0.00000 18.672    0.000
2143  0.00000 18.651    0.000
2144  0.00000 18.634    0.000
2145  0.00000 18.624    0.000
2146  0.00000 18.620    0.000
2147  0.00000 18.622    0.000
2148  0.00000 18.625    0.000
2149  0.00000 18.625    0.031
2150  0.00000 18.625    0.031
2151  0.00000 18.625    0.031
2152  0.00000 18.627    0.000
2153  0.00000 18.628    0.000
2154  0.00000 18.629    0.000
2155  0.00000 18.630    0.000
2156  0.00000 18.632    0.000
2157  0.00000 18.634    0.000
2158  0.00000 18.636    0.000
2159  0.00000 18.638    0.000
2160  0.00000 18.639    0.000
2161  0.00000 18.641    0.000
2162  0.00000 18.643    0.000
2163  0.00000 18.646    0.000
2164  0.00000 18.647   -0.031
2165  0.00000 18.647    0.000
2166  0.00000 18.647   -0.031
2167  0.00000 18.649    0.000
2168  0.00000 18.651    0.031
2169  0.00000 18.654    0.031
2170  0.00000 18.653    0.031
2171  0.00000 18.652    0.031
2172  0.00000 18.655    0.000
2173  0.00000 18.657    0.000
2174  0.00000 18.658    0.000
2175  0.00000 18.659    0.000
2176  0.00000 18.660    0.000
2177  0.00000 18.660    0.000
2178  0.00000 18.662    0.000
2179  0.00000 18.663    0.031
2180  0.00000 18.665    0.000
2181  0.00000 18.668    0.000
2182  0.00000 18.672    0.031
2183  0.00000 18.675    0.000
2184  0.00000 18.678    0.000
2185  0.00000 18.682    0.000
2186  0.00000 18.685    0.000
2187  0.00000 18.689    0.000
2188  0.00000 18.693    0.000
2189  0.00000 18.697    0.000
2190  0.00000 18.700    0.031
2191  0.00000 18.702    0.000
2192  0.00000 18.704    0.000
2193  0.00000 18.707    0.000
2194  0.00000 18.709    0.000
2195  0.00000 18.711    0.000
2196  0.00000 18.713    0.000
2197  0.00000 18.713    0.000
2198  0.00000 18.714    0.031
2199  0.00000 18.714    0.000
2200  0.00000 18.713    0.000
2201  0.00000 18.712   -0.031
2202  0.00000 18.712    0.000
2203  0.00000 18.715    0.000
2204  0.00000 18.716    0.031
2205  0.00000 18.718    0.000
2206  0.00000 18.719    0.031
2207  0.00000 18.721    0.000
2208  0.00000 18.723    0.000
2209  0.00000 18.726    0.000
2210  0.00000 18.727    0.000
2211  0.00000 18.728   -0.031
2212  0.00000 18.727    0.000
2213  0.00000 18.724    0.000
2214  0.00000 18.722    0.000
2215  0.00000 18.721    0.000
2216  0.00000 18.719    0.000
2217  0.00000 18.718    0.000
2218  0.00000 18.718    0.000
2219  0.00000 18.719    0.000
2220  0.00000 18.718    0.000
2221  0.00000 18.718    0.000
2222  0.00000 18.720    0.000
2223  0.00000 18.720    0.000
2224  0.00000 18.720    0.000
2225  0.00000 18.720    0.000
2226  0.00000 18.720    0.000
2227  0.00000 18.719    0.000
2228  0.00000 18.717   -0.031
2229  0.00000 18.715    0.000
2230  0.00000 18.716    0.000
2231  0.00000 18.716    0.000
2232  0.00000 18.713    0.000
2233  0.00000 18.711    0.031
2234  0.00000 18.710    0.031
2235  0.00000 18.709    0.000
2236  0.00000 18.706    0.031
2237  0.00000 18.704   -0.031
2238  0.00000 18.704   -0.031
2239  0.00000 18.705    0.000
2240  0.00000 18.706    0.000
2241  0.00000 18.708    0.000
2242  0.00000 18.710    0.031
2243  0.00000 18.713    0.000
2244  0.00000 18.717    0.000
2245  0.00000 18.719    0.000
2246  0.00000 18.720   -0.031
2247  0.00000 18.722    0.000
2248  0.00000 18.726    0.000
2249  0.00000 18.729    0.000
2250  0.00000 18.731    0.000
2251  0.00000 18.733    0.000
2252  0.00000 18.736    0.000
2253  0.00000 18.739    0.000
2254  0.00000 18.744    0.000
2255  0.00000 18.748    0.000
2256  0.00000 18.752    0.000
2257  0.00000 18.757    0.000
2258  0.00000 18.762    0.000
2259  0.00000 18.767    0.000
2260  0.00000 18.773    0.000
2261  0.00000 18.778    0.000
2262  0.00000 18.781    0.031
2263  0.00000 18.784    0.000
2264  0.00000 18.786    0.000
2265  0.00000 18.789    0.000
2266  0.00000 18.791    0.000
2267  0.00000 18.793    0.000
2268  0.00000 18.793    0.000
2269  0.00000 18.791    0.000
2270  0.00000 18.790    0.000
2271  0.00000 18.788    0.031
2272  0.00000 18.786    0.000
2273  0.00000 18.782    0.000
2274  0.00000 18.778   -0.031
2275  0.00000 18.774    0.000
2276  0.00000 18.771   -0.031
2277  0.00000 18.769    0.000
2278  0.00000 18.767    0.000
2279  0.00000 18.766    0.000
2280  0.00000 18.769    0.000
2281  0.00000 18.772    0.000
2282  0.00000 18.776    0.000
2283  0.00000 18.779    0.000
2284  0.00000 18.778   -0.031
2285  0.00000 18.776    0.000
2286  0.00000 18.775    0.000
2287  0.00000 18.775    0.000
2288  0.00000 18.776    0.000
2289  0.00000 18.777    0.000
2290  0.00000 18.778    0.031
2291  0.00000 18.778    0.000
2292  0.00000 18.779    0.000
2293  0.00000 18.779    0.000
2294  0.00000 18.779    0.000
2295  0.00000 18.775    0.031
2296  0.00000 18.771    0.000
2297  0.00000 18.767    0.000
2298  0.00000 18.762    0.000
2299  0.00000 18.758    0.000
2300  0.00000 18.755    0.000
2301  0.00000 18.752    0.000
2302  0.00000 18.749    0.000
2303  0.00000 18.747    0.000
2304  0.00000 18.746    0.031
2305  0.00000 18.743    0.000
2306  0.00000 18.743   -0.031
2307  0.00000 18.744    0.000
2308  0.00000 18.745    0.031
2309  0.00000 18.746    0.000
2310  0.00000 18.745    0.000
2311  0.00000 18.743    0.031
2312  0.00000 18.742    0.031
2313  0.00000 18.741    0.000
2314  0.00000 18.742    0.000
2315  0.00000 18.743    0.000
2316  0.00000 18.743    0.000
2317  0.00000 18.742    0.031
2318  0.00000 18.741    0.000
2319  0.00000 18.740    0.000
2320  0.00000 18.739    0.000
2321  0.00000 18.739    0.000
2322  0.00000 18.738    0.000
2323  0.00000 18.738    0.000
2324  0.00000 18.738   -0.031
2325  0.00000 18.738    0.000
2326  0.00000 18.738    0.000
2327  0.00000 18.738    0.000
2328  0.00000 18.738    0.031
2329  0.00000 18.738    0.000
2330  0.00000 18.738    0.000
2331  0.00000 18.738    0.000
2332  0.00000 18.739    0.000
2333  0.00000 18.739    0.000
2334  0.00000 18.739    0.000
2335  0.00000 18.738    0.000
2336  0.00000 18.738    0.000
2337  0.00000 18.738    0.031
2338  0.00000 18.737    0.000
2339  0.00000 18.736    0.000
2340  0.00000 18.736    0.000
2341  0.00000 18.735    0.000
2342  0.00000 18.735    0.000
2343  0.00000 18.734    0.000
2344  0.00000 18.733    0.000
2345  0.00000 18.733    0.000
2346  0.00000 18.732    0.031
2347  0.00000 18.731    0.000
2348  0.00000 18.730    0.000
2349  0.00000 18.730    0.000
2350  0.00000 18.729    0.000
2351  0.00000 18.728    0.000
2352  0.00000 18.728    0.000
2353  0.00000 18.728    0.000
2354  0.00000 18.729    0.000
2355  0.00000 18.730    0.000
2356  0.00000 18.732    0.000
2357  0.00000 18.734    0.000
2358  0.00000 18.735    0.000
2359  0.00000 18.737    0.000
2360  0.00000 18.739    0.000
2361  0.00000 18.741    0.000
2362  0.00000 18.743    0.000
2363  0.00000 18.746    0.000
2364  0.00000 18.748    0.000
2365  0.00000 18.750    0.000
2366  0.00000 18.752    0.000
2367  0.00000 18.754    0.031
2368  0.00000 18.756    0.031
2369  0.00000 18.758    0.000
2370  0.00000 18.760    0.000
2371  0.00000 18.761    0.000
2372  0.00000 18.762    0.000
2373  0.00000 18.763    0.000
2374  0.00000 18.765    0.000
2375  0.00000 18.767    0.000
2376  0.00000 18.771    0.031
2377  0.00000 18.774    0.031
2378  0.00000 18.776    0.000
2379  0.00000 18.778    0.000
2380  0.00000 18.780    0.000
2381  0.00000 18.781    0.000
2382  0.00000 18.782    0.000
2383  0.00000 18.783    0.031
2384  0.00000 18.784    0.000
2385  0.00000 18.786    0.000
2386  0.00000 18.788    0.000
2387  0.00000 18.791   -0.031
2388  0.00000 18.794    0.000
2389  0.00000 18.797    0.000
2390  0.00000 18.799    0.000
2391  0.00000 18.800    0.000
2392  0.00000 18.802    0.000
2393  0.00000 18.803    0.000
2394  0.00000 18.806    0.000
2395  0.00000 18.807    0.000
2396  0.00000 18.809    0.000
2397  0.00000 18.809    0.000
2398  0.00000 18.810    0.000
2399  0.00000 18.811    0.000
2400  0.00000 18.812    0.000
2401  0.00000 18.813    0.000
2402  0.00000 18.814    0.000
2403  0.00000 18.815    0.000
2404  0.00000 18.816    0.031
2405  0.00000 18.817    0.000
2406  0.00000 18.818    0.031
2407  0.00000 18.819    0.000
2408  0.00000 18.819    0.000
2409  0.00000 18.820    0.000
2410  0.00000 18.821    0.000
2411  0.00000 18.822    0.000
2412  0.00000 18.823    0.000
2413  0.00000 18.823    0.000
2414  0.00000 18.824    0.000
2415  0.00000 18.825    0.000
2416  0.00000 18.825    0.000
2417  0.00000 18.826    0.000
2418  0.00000 18.827    0.000
2419  0.00000 18.827    0.000
2420  0.00000 18.828    0.000
2421  0.00000 18.828   -0.031
2422  0.00000 18.828    0.000
2423  0.00000 18.828    0.000
2424  0.00000 18.829    0.000
2425  0.00000 18.830    0.031
2426  0.00000 18.830    0.000
2427  0.00000 18.831    0.000
2428  0.00000 18.831    0.031
2429  0.00000 18.831    0.000
2430  0.00000 18.831   -0.031
2431  0.00000 18.831    0.000
2432  0.00000 18.831    0.000
2433  0.00000 18.831    0.000
2434  0.00000 18.830    0.000
2435  0.00000 18.830    0.000
2436  0.00000 18.830    0.000
2437  0.00000 18.830    0.000
2438  0.00000 18.830    0.000
2439  0.00000 18.830    0.000
2440  0.00000 18.830    0.000
2441  0.00000 18.831    0.000
2442  0.00000 18.831    0.000
2443  0.00000 18.832    0.031
2444  0.00000 18.832    0.000
2445  0.00000 18.832    0.000
2446  0.00000 18.832    0.000
2447  0.00000 18.833    0.000
2448  0.00000 18.832    0.000
2449  0.00000 18.832    0.000
2450  0.00000 18.831    0.000
2451  0.00000 18.831    0.000
2452  0.00000 18.830    0.000
2453  0.00000 18.829    0.000
2454  0.00000 18.828    0.000
2455  0.00000 18.827    0.031
2456  0.00000 18.826    0.000
2457  0.00000 18.825    0.000
2458  0.00000 18.824   -0.031
2459  0.00000 18.823    0.000
2460  0.00000 18.822    0.000
2461  0.00000 18.822    0.000
2462  0.00000 18.822    0.031
2463  0.00000 18.821    0.031
2464  0.00000 18.821    0.000
2465  0.00000 18.821    0.000
2466  0.00000 18.822    0.000
2467  0.00000 18.822    0.000
2468  0.00000 18.823    0.000
2469  0.00000 18.824    0.000
2470  0.00000 18.826    0.000
2471  0.00000 18.826    0.000
2472  0.00000 18.828    0.031
2473  0.00000 18.828    0.031
2474  0.00000 18.829    0.000
2475  0.00000 18.830    0.000
2476  0.00000 18.831    0.000
2477  0.00000 18.832    0.000
2478  0.00000 18.834    0.000
2479  0.00000 18.835   -0.031
2480  0.00000 18.837    0.000
2481  0.00000 18.839    0.000
2482  0.00000 18.841    0.000
2483  0.00000 18.843    0.000
2484  0.00000 18.845    0.000
2485  0.00000 18.847    0.000
2486  0.00000 18.849   -0.031
2487  0.00000 18.851   -0.031
2488  0.00000 18.853    0.000
2489  0.00000 18.855   -0.031
2490  0.00000 18.856    0.000
2491  0.00000 18.858    0.000
2492  0.00000 18.860    0.000
2493  0.00000 18.861    0.000
2494  0.00000 18.863    0.000
2495  0.00000 18.864    0.000
2496  0.00000 18.866    0.000
2497  0.00000 18.868    0.000
2498  0.00000 18.871    0.000
2499  0.00000 18.872    0.000
2500  0.00000 18.874    0.000
2501  0.00000 18.875    0.000
2502  0.00000 18.876    0.000
2503  0.00000 18.875    0.000
2504  0.00000 18.874    0.000
2505  0.00000 18.873    0.000
2506  0.00000 18.872   -0.031
2507  0.00000 18.871   -0.031
2508  0.00000 18.870    0.000
2509  0.00000 18.869    0.000
2510  0.00000 18.867    0.000
2511  0.00000 18.867    0.000
2512  0.00000 18.866    0.000
2513  0.00000 18.865    0.000
2514  0.00000 18.865    0.000
2515  0.00000 18.864    0.000
2516  0.00000 18.864    0.000
2517  0.00000 18.864    0.000
2518  0.00000 18.865    0.000
2519  0.00000 18.865    0.000
2520  0.00000 18.866    0.000
2521  0.00000 18.866    0.000
2522  0.00000 18.867    0.000
2523  0.00000 18.868    0.000
2524  0.00000 18.869    0.000
2525  0.00000 18.870    0.000
2526  0.00000 18.872    0.000
2527  0.00000 18.873    0.000
2528  0.00000 18.874    0.000
2529  0.00000 18.875    0.000
2530  0.00000 18.876    0.000
2531  0.00000 18.876    0.000
2532  0.00000 18.876    0.000
2533  0.00000 18.876    0.000
2534  0.00000 18.876    0.000
2535  0.00000 18.876   -0.031
2536  0.00000 18.876    0.000
2537  0.00000 18.876    0.000
2538  0.00000 18.877   -0.031
2539  0.00000 18.877    0.000
2540  0.00000 18.878    0.000
2541  0.00000 18.879    0.031
2542  0.00000 18.879    0.000
2543  0.00000 18.880    0.000
2544  0.00000 18.881    0.000
2545  0.00000 18.882    0.000
2546  0.00000 18.883    0.000
2547  0.00000 18.884    0.000
2548  0.00000 18.884    0.000
2549  0.00000 18.885    0.000
2550  0.00000 18.886    0.000
2551  0.00000 18.886    0.000
2552  0.00000 18.887    0.000
2553  0.00000 18.889    0.000
2554  0.00000 18.890    0.000
2555  0.00000 18.892    0.000
2556  0.00000 18.894   -0.031
2557  0.00000 18.897    0.000
2558  0.00000 18.900    0.000
2559  0.00000 18.903    0.000
2560  0.00000 18.906    0.000
2561  0.00000 18.909    0.000
2562  0.00000 18.912    0.000
2563  0.00000 18.914    0.000
2564  0.00000 18.916    0.000
2565  0.00000 18.918   -0.031
2566  0.00000 18.920    0.000
2567  0.00000 18.923    0.000
2568  0.00000 18.925    0.000
2569  0.00000 18.927    0.000
2570  0.00000 18.929    0.000
2571  0.00000 18.931    0.000
2572  0.00000 18.933    0.000
2573  0.00000 18.936    0.000
2574  0.00000 18.939   -0.031
2575  0.00000 18.940    0.000
2576  0.00000 18.942    0.000
2577  0.00000 18.944    0.000
2578  0.00000 18.946    0.000
2579  0.00000 18.947    0.000
2580  0.00000 18.948    0.031
2581  0.00000 18.949    0.000
2582  0.00000 18.950    0.000
2583  0.00000 18.950    0.000
2584  0.00000 18.951    0.000
2585  0.00000 18.952   -0.031
2586  0.00000 18.953    0.000
2587  0.00000 18.953    0.000
2588  0.00000 18.953    0.000
2589  0.00000 18.954    0.000
2590  0.00000 18.954    0.000
2591  0.00000 18.955    0.000
2592  0.00000 18.957    0.000
2593  0.00000 18.958    0.000
2594  0.00000 18.960    0.000
2595  0.00000 18.962    0.000
2596  0.00000 18.965    0.000
2597  0.00000 18.968    0.000
2598  0.00000 18.971    0.000
2599  0.00000 18.974    0.000
2600  0.00000 18.978    0.031
2601  0.00000 18.981    0.000
