* Sea-Bird SBE19Plus Data File:
* FileName = C:\Velocity_Write\CATFILES\\2013_066_200153.HEX
* Software Version 12.9(r4042)
* Temperature SN = 4677
* Conductivity SN = 4677
* System UpLoad Time = Mar 07 2013 15:09:24
* DS
* SeacatPlus V 1.6b  SERIAL NO. 4677    07 Mar 2013  20:08:58
* vbatt = 13.0, vlith =  8.2, ioper =  60.8 ma, ipump =  32.8 ma,
* status = not logging
* number of scans to average = 1
* samples = 2030, free = 760570, casts = 2
* mode = profile, minimum cond freq = 3258, pump delay = 40 sec
* autorun = no, ignore magnetic switch = no
* battery type = alkaline, battery cutoff =  7.3 volts
* pressure sensor = strain gauge, range = 508.0
* SBE 38 = no, Gas Tension Device = no
* Ext Volt 0 = no, Ext Volt 1 = no, Ext Volt 2 = no, Ext Volt 3 = no
* echo commands = yes
* output format = raw HEX
* S>* DCal
* SeacatPlus V 1.6b  SERIAL NO. 4677    07 Mar 2013  20:09:22
* temperature:  13-feb-13
*     TA0 = 1.164955e-03
*     TA1 = 2.728354e-04
*     TA2 = -8.226857e-07
*     TA3 = 1.744725e-07
*     TOFFSET = 0.000000e+00
* conductivity:  13-feb-13
*     G = -1.054625e+00
*     H = 1.386100e-01
*     I = -6.015625e-06
*     J = 1.192159e-05
*     CF0 = 2.757577e+03
*     CPCOR = -9.570000e-08
*     CTCOR = 3.250000e-06
*     CSLOPE = 1.000000e+00
* pressure S/N = 6135, range = 508 psia:  11-feb-13
*     PA0 = 6.999161e-02
*     PA1 = 1.551649e-03
*     PA2 = 8.371328e-12
*     PTCA0 = 5.150544e+05
*     PTCA1 = 5.114593e+00
*     PTCA2 = -1.434133e-01
*     PTCB0 = 2.429287e+01
*     PTCB1 = -6.250001e-04
*     PTCB2 = 0.000000e+00
*     PTEMPA0 = -7.814415e+01
*     PTEMPA1 = 4.697179e+01
*     PTEMPA2 = -3.639995e-02
*     POFFSET = 0.000000e+00
* volt 0: offset = -4.611895e-02, slope = 1.251580e+00
* volt 1: offset = -4.635474e-02, slope = 1.250966e+00
* volt 2: offset = -4.601158e-02, slope = 1.250740e+00
* volt 3: offset = -4.587579e-02, slope = 1.251470e+00
*     EXTFREQSF = 1.000002e+00
* S>* cast   2 07 Mar 2013 20:01:53 samples 722 to 2030, avg = 1, stop = mag switch
# nquan = 4
# nvalues = 1309                                  
# units = specified
# name 0 = prdM: Pressure, Strain Gauge [db]
# name 1 = c0S/m: Conductivity [S/m]
# name 2 = tv290C: Temperature [ITS-90, deg C]
# name 3 = flag:  0.000e+00
# span 0 =     -0.011,      3.831                 
# span 1 =   0.014787,   1.270733                 
# span 2 =     4.8789,     9.6057                 
# span 3 = 0.0000e+00, 0.0000e+00                 
# interval = seconds: 0.25
# start_time = Mar 07 2013 15:09:24 [System UpLoad Time]
# bad_flag = -9.990e-29
# <Sensors count="3" >
#   <sensor Channel="1" >
#     <!-- Count, Temperature -->
#     <TemperatureSensor SensorID="58" >
#       <SerialNumber>4677</SerialNumber>
#       <CalibrationDate>13-Feb-13</CalibrationDate>
#       <A0>1.16495500e-003</A0>
#       <A1>2.72835400e-004</A1>
#       <A2>-8.22685700e-007</A2>
#       <A3>1.74472500e-007</A3>
#       <Slope>1.00000000</Slope>
#       <Offset>0.0000</Offset>
#     </TemperatureSensor>
#   </sensor>
#   <sensor Channel="2" >
#     <!-- Frequency 0, Conductivity -->
#     <ConductivitySensor SensorID="3" >
#       <SerialNumber>4677</SerialNumber>
#       <CalibrationDate>13-Feb-13</CalibrationDate>
#       <UseG_J>1</UseG_J>
#       <!-- Cell const and series R are applicable only for wide range sensors. -->
#       <SeriesR>0.0000</SeriesR>
#       <CellConst>2000.0000</CellConst>
#       <ConductivityType>0</ConductivityType>
#       <Coefficients equation="0" >
#         <A>0.00000000e+000</A>
#         <B>0.00000000e+000</B>
#         <C>0.00000000e+000</C>
#         <D>0.00000000e+000</D>
#         <M>0.0</M>
#         <CPcor>-9.57000000e-008</CPcor>
#       </Coefficients>
#       <Coefficients equation="1" >
#         <G>-1.05462500e+000</G>
#         <H>1.38610000e-001</H>
#         <I>-6.01562400e-006</I>
#         <J>1.19215900e-005</J>
#         <CPcor>-9.57000000e-008</CPcor>
#         <CTcor>3.2500e-006</CTcor>
#         <!-- WBOTC not applicable unless ConductivityType = 1. -->
#         <WBOTC>0.00000000e+000</WBOTC>
#       </Coefficients>
#       <Slope>1.00000000</Slope>
#       <Offset>0.00000</Offset>
#     </ConductivitySensor>
#   </sensor>
#   <sensor Channel="3" >
#     <!-- Count, Pressure, Strain Gauge -->
#     <PressureSensor SensorID="46" >
#       <SerialNumber>4677</SerialNumber>
#       <CalibrationDate>11-Feb-13</CalibrationDate>
#       <PA0>6.99916085e-002</PA0>
#       <PA1>1.55164893e-003</PA1>
#       <PA2>8.37132752e-012</PA2>
#       <PTEMPA0>-7.81441496e+001</PTEMPA0>
#       <PTEMPA1>4.69717920e+001</PTEMPA1>
#       <PTEMPA2>-3.63999527e-002</PTEMPA2>
#       <PTCA0>5.15054380e+005</PTCA0>
#       <PTCA1>5.11459277e+000</PTCA1>
#       <PTCA2>-1.43413325e-001</PTCA2>
#       <PTCB0>2.42928750e+001</PTCB0>
#       <PTCB1>-6.25000000e-004</PTCB1>
#       <PTCB2>0.00000000e+000</PTCB2>
#       <Offset>0.000000</Offset>
#     </PressureSensor>
#   </sensor>
# </Sensors>
# datcnv_date = Apr 08 2013 13:37:32, 7.22.5 [datcnv_vars = 3]
# datcnv_in = G:\Data\SoundVelocity\BayHydroII\2013_066_200153.HEX G:\Data\SoundVelocity\BayHydroII\4677.xmlcon
# datcnv_skipover = 0
# file_type = ascii
*END*
      0.029   0.025316     9.3652  0.000e+00
      0.029   0.025906     9.3640  0.000e+00
      0.029   0.026300     9.3642  0.000e+00
      0.009   0.015426     8.1753  0.000e+00
      0.010   0.015317     8.1990  0.000e+00
      0.012   0.015275     8.2336  0.000e+00
      0.011   0.015254     8.2604  0.000e+00
      0.011   0.015251     8.2767  0.000e+00
      0.013   0.015224     8.2870  0.000e+00
      0.011   0.015191     8.2937  0.000e+00
      0.010   0.015139     8.3037  0.000e+00
      0.012   0.015148     8.3135  0.000e+00
      0.012   0.015148     8.3208  0.000e+00
      0.011   0.015151     8.3215  0.000e+00
      0.013   0.015158     8.3213  0.000e+00
      0.013   0.015124     8.3187  0.000e+00
      0.010   0.015124     8.3187  0.000e+00
      0.012   0.015091     8.3189  0.000e+00
      0.010   0.015115     8.3221  0.000e+00
      0.012   0.015139     8.3177  0.000e+00
      0.011   0.015124     8.3056  0.000e+00
      0.011   0.015133     8.3013  0.000e+00
      0.010   0.015139     8.2981  0.000e+00
      0.012   0.015158     8.2947  0.000e+00
      0.012   0.015176     8.2917  0.000e+00
      0.011   0.015167     8.2883  0.000e+00
      0.012   0.015103     8.2857  0.000e+00
      0.010   0.015073     8.2884  0.000e+00
      0.011   0.015007     8.2921  0.000e+00
      0.013   0.015022     8.3011  0.000e+00
      0.012   0.014998     8.3058  0.000e+00
      0.008   0.014956     8.3067  0.000e+00
      0.003   0.014820     8.3062  0.000e+00
     -0.005   0.014787     8.3036  0.000e+00
     -0.006   0.014947     8.3022  0.000e+00
     -0.004   0.015468     8.3015  0.000e+00
     -0.004   0.016031     8.3003  0.000e+00
     -0.005   0.016561     8.2982  0.000e+00
     -0.006   0.017034     8.2957  0.000e+00
     -0.005   0.017423     8.2930  0.000e+00
     -0.004   0.018044     8.2821  0.000e+00
     -0.002   0.018753     8.2781  0.000e+00
     -0.004   0.019066     8.2940  0.000e+00
     -0.004   0.019244     8.3050  0.000e+00
     -0.005   0.019464     8.2972  0.000e+00
     -0.005   0.019667     8.2775  0.000e+00
     -0.006   0.019860     8.2490  0.000e+00
     -0.011   0.020367     8.2235  0.000e+00
     -0.011   0.021146     8.2091  0.000e+00
     -0.011   0.022172     8.1956  0.000e+00
     -0.002   0.022308     8.1671  0.000e+00
      0.000   0.022112     8.1323  0.000e+00
     -0.004   0.022299     8.1013  0.000e+00
     -0.011   0.022997     8.0658  0.000e+00
     -0.006   0.023575     8.0364  0.000e+00
     -0.005   0.023880     8.0184  0.000e+00
     -0.006   0.024194     8.0064  0.000e+00
     -0.007   0.024442     8.0026  0.000e+00
     -0.006   0.024500     8.0019  0.000e+00
     -0.003   0.024391     8.0044  0.000e+00
     -0.003   0.024152     8.0077  0.000e+00
     -0.010   0.024007     8.0073  0.000e+00
     -0.001   0.023838     8.0078  0.000e+00
     -0.001   0.023599     8.0033  0.000e+00
      0.138   0.924084     7.9741  0.000e+00
      0.458   1.241281     7.3495  0.000e+00
      0.601   1.247091     6.5090  0.000e+00
      0.626   1.248561     6.0680  0.000e+00
      0.579   1.248610     5.8417  0.000e+00
      0.440   1.218577     5.7057  0.000e+00
      0.295   1.206265     5.6418  0.000e+00
      0.221   1.028905     5.5943  0.000e+00
      0.207   1.025021     5.5677  0.000e+00
      0.236   0.824315     5.5624  0.000e+00
      0.326   1.240463     5.5577  0.000e+00
      0.436   1.243771     5.5339  0.000e+00
      0.491   1.250505     5.5102  0.000e+00
      0.487   1.254923     5.5076  0.000e+00
      0.492   1.244725     5.5421  0.000e+00
      0.546   1.251359     5.5933  0.000e+00
      0.579   1.255335     5.5818  0.000e+00
      0.584   1.258560     5.5668  0.000e+00
      0.585   1.259762     5.5867  0.000e+00
      0.585   1.260395     5.6228  0.000e+00
      0.584   1.259863     5.6608  0.000e+00
      0.584   1.258560     5.6782  0.000e+00
      0.589   1.257890     5.6981  0.000e+00
      0.590   1.258901     5.7119  0.000e+00
      0.587   1.258112     5.6967  0.000e+00
      0.586   1.256123     5.6494  0.000e+00
      0.586   1.254236     5.6026  0.000e+00
      0.590   1.253089     5.5680  0.000e+00
      0.585   1.252780     5.5434  0.000e+00
      0.586   1.252833     5.5276  0.000e+00
      0.586   1.251872     5.5150  0.000e+00
      0.590   1.250505     5.5011  0.000e+00
      0.593   1.251532     5.4891  0.000e+00
      0.592   1.252249     5.4863  0.000e+00
      0.589   1.252612     5.4891  0.000e+00
      0.592   1.250744     5.4875  0.000e+00
      0.594   1.250660     5.4811  0.000e+00
      0.594   1.251293     5.4782  0.000e+00
      0.594   1.251842     5.4786  0.000e+00
      0.595   1.251735     5.4782  0.000e+00
      0.595   1.251992     5.4757  0.000e+00
      0.592   1.252200     5.4755  0.000e+00
      0.591   1.251634     5.4759  0.000e+00
      0.590   1.250558     5.4733  0.000e+00
      0.590   1.250505     5.4690  0.000e+00
      0.590   1.251001     5.4673  0.000e+00
      0.590   1.251395     5.4684  0.000e+00
      0.589   1.251089     5.4687  0.000e+00
      0.590   1.251001     5.4673  0.000e+00
      0.589   1.251346     5.4664  0.000e+00
      0.589   1.251890     5.4695  0.000e+00
      0.590   1.251359     5.4722  0.000e+00
      0.587   1.250403     5.4712  0.000e+00
      0.587   1.250421     5.4701  0.000e+00
      0.589   1.250625     5.4710  0.000e+00
      0.587   1.251240     5.4717  0.000e+00
      0.587   1.253108     5.4746  0.000e+00
      0.589   1.253174     5.4826  0.000e+00
      0.589   1.252749     5.4926  0.000e+00
      0.586   1.253276     5.4960  0.000e+00
      0.587   1.253258     5.4981  0.000e+00
      0.591   1.252798     5.4999  0.000e+00
      0.590   1.252027     5.4961  0.000e+00
      0.589   1.253138     5.4917  0.000e+00
      0.587   1.253479     5.4943  0.000e+00
      0.587   1.252988     5.5018  0.000e+00
      0.589   1.253276     5.5044  0.000e+00
      0.587   1.253382     5.5031  0.000e+00
      0.589   1.253448     5.5013  0.000e+00
      0.591   1.254338     5.4986  0.000e+00
      0.590   1.253687     5.4993  0.000e+00
      0.589   1.253825     5.5004  0.000e+00
      0.587   1.256225     5.4992  0.000e+00
      0.589   1.258472     5.5045  0.000e+00
      0.590   1.258698     5.5137  0.000e+00
      0.586   1.257820     5.5182  0.000e+00
      0.589   1.259726     5.5185  0.000e+00
      0.589   1.260675     5.5215  0.000e+00
      0.589   1.260795     5.5267  0.000e+00
      0.587   1.260245     5.5324  0.000e+00
      0.587   1.261567     5.5373  0.000e+00
      0.592   1.262427     5.5428  0.000e+00
      0.592   1.262968     5.5488  0.000e+00
      0.593   1.262258     5.5544  0.000e+00
      0.593   1.263412     5.5592  0.000e+00
      0.592   1.264308     5.5635  0.000e+00
      0.592   1.263807     5.5636  0.000e+00
      0.591   1.262134     5.5628  0.000e+00
      0.590   1.263412     5.5584  0.000e+00
      0.589   1.264619     5.5568  0.000e+00
      0.592   1.263514     5.5591  0.000e+00
      0.591   1.263430     5.5596  0.000e+00
      0.593   1.265289     5.5595  0.000e+00
      0.591   1.265893     5.5645  0.000e+00
      0.591   1.265738     5.5690  0.000e+00
      0.591   1.265875     5.5738  0.000e+00
      0.591   1.265826     5.5808  0.000e+00
      0.590   1.265857     5.5887  0.000e+00
      0.591   1.266137     5.5970  0.000e+00
      0.591   1.266359     5.6057  0.000e+00
      0.589   1.266155     5.6143  0.000e+00
      0.589   1.266221     5.6218  0.000e+00
      0.590   1.267052     5.6282  0.000e+00
      0.594   1.267949     5.6352  0.000e+00
      0.592   1.268175     5.6418  0.000e+00
      0.591   1.267464     5.6443  0.000e+00
      0.591   1.267100     5.6453  0.000e+00
      0.590   1.268486     5.6464  0.000e+00
      0.589   1.268313     5.6467  0.000e+00
      0.587   1.266932     5.6439  0.000e+00
      0.586   1.266980     5.6414  0.000e+00
      0.590   1.267984     5.6423  0.000e+00
      0.589   1.268348     5.6454  0.000e+00
      0.590   1.268535     5.6500  0.000e+00
      0.587   1.268917     5.6564  0.000e+00
      0.587   1.269281     5.6637  0.000e+00
      0.589   1.268832     5.6708  0.000e+00
      0.590   1.267895     5.6768  0.000e+00
      0.589   1.268690     5.6802  0.000e+00
      0.587   1.269645     5.6840  0.000e+00
      0.587   1.269228     5.6877  0.000e+00
      0.589   1.268375     5.6907  0.000e+00
      0.585   1.269245     5.6926  0.000e+00
      0.587   1.269921     5.6952  0.000e+00
      0.589   1.269503     5.6972  0.000e+00
      0.589   1.268348     5.6999  0.000e+00
      0.592   1.268313     5.7020  0.000e+00
      0.592   1.269956     5.7034  0.000e+00
      0.591   1.270370     5.7063  0.000e+00
      0.589   1.269503     5.7057  0.000e+00
      0.589   1.267637     5.7126  0.000e+00
      0.589   1.267291     5.7270  0.000e+00
      0.590   1.268552     5.7432  0.000e+00
      0.591   1.269192     5.7740  0.000e+00
      0.591   1.269245     5.8014  0.000e+00
      0.590   1.269574     5.8132  0.000e+00
      0.591   1.269729     5.8201  0.000e+00
      0.592   1.269938     5.8257  0.000e+00
      0.593   1.269800     5.8303  0.000e+00
      0.590   1.269280     5.8323  0.000e+00
      0.591   1.269245     5.8313  0.000e+00
      0.590   1.269800     5.8296  0.000e+00
      0.590   1.269867     5.8315  0.000e+00
      0.590   1.269885     5.8345  0.000e+00
      0.591   1.270093     5.8377  0.000e+00
      0.592   1.269938     5.8409  0.000e+00
      0.591   1.269920     5.8437  0.000e+00
      0.593   1.270351     5.8458  0.000e+00
      0.590   1.270733     5.8484  0.000e+00
      0.593   1.270524     5.8514  0.000e+00
      0.591   1.269316     5.8534  0.000e+00
      0.592   1.269316     5.8515  0.000e+00
      0.593   1.270542     5.8490  0.000e+00
      0.590   1.270284     5.8492  0.000e+00
      0.591   1.269471     5.8473  0.000e+00
      0.590   1.269520     5.8442  0.000e+00
      0.590   1.269987     5.8438  0.000e+00
      0.590   1.269591     5.8458  0.000e+00
      0.591   1.268898     5.8476  0.000e+00
      0.590   1.269298     5.8471  0.000e+00
      0.593   1.270178     5.8476  0.000e+00
      0.592   1.260794     5.8495  0.000e+00
      0.593   1.241579     5.8001  0.000e+00
      0.593   1.239438     5.6645  0.000e+00
      0.592   1.239099     5.5508  0.000e+00
      0.589   1.239002     5.4767  0.000e+00
      0.590   1.238896     5.4344  0.000e+00
      0.586   1.238795     5.4110  0.000e+00
      0.587   1.238932     5.3985  0.000e+00
      0.584   1.238813     5.3940  0.000e+00
      0.587   1.238627     5.3907  0.000e+00
      0.590   1.238574     5.3874  0.000e+00
      0.591   1.238641     5.3854  0.000e+00
      0.591   1.238543     5.3846  0.000e+00
      0.591   1.238574     5.3838  0.000e+00
      0.589   1.238694     5.3826  0.000e+00
      0.589   1.238729     5.3829  0.000e+00
      0.590   1.238729     5.3845  0.000e+00
      0.589   1.238676     5.3862  0.000e+00
      0.586   1.238729     5.3864  0.000e+00
      0.589   1.238627     5.3863  0.000e+00
      0.588   1.238491     5.3853  0.000e+00
      0.588   1.238455     5.3843  0.000e+00
      0.588   1.238305     5.3832  0.000e+00
      0.586   1.238318     5.3801  0.000e+00
      0.590   1.238318     5.3781  0.000e+00
      0.589   1.238305     5.3774  0.000e+00
      0.590   1.238305     5.3768  0.000e+00
      0.588   1.238270     5.3767  0.000e+00
      0.589   1.238235     5.3767  0.000e+00
      0.591   1.238288     5.3765  0.000e+00
      0.589   1.238252     5.3762  0.000e+00
      0.590   1.238217     5.3750  0.000e+00
      0.590   1.238305     5.3729  0.000e+00
      0.590   1.238336     5.3741  0.000e+00
      0.586   1.238407     5.3755  0.000e+00
      0.586   1.238305     5.3769  0.000e+00
      0.586   1.238217     5.3774  0.000e+00
      0.591   1.238089     5.3753  0.000e+00
      0.591   1.238032     5.3725  0.000e+00
      0.590   1.238067     5.3708  0.000e+00
      0.590   1.237983     5.3701  0.000e+00
      0.590   1.237895     5.3689  0.000e+00
      0.592   1.237762     5.3677  0.000e+00
      0.592   1.237913     5.3663  0.000e+00
      0.590   1.237996     5.3662  0.000e+00
      0.591   1.237943     5.3675  0.000e+00
      0.588   1.237965     5.3679  0.000e+00
      0.592   1.237983     5.3682  0.000e+00
      0.589   1.237913     5.3691  0.000e+00
      0.586   1.237948     5.3700  0.000e+00
      0.585   1.237864     5.3698  0.000e+00
      0.589   1.238067     5.3686  0.000e+00
      0.592   1.238204     5.3698  0.000e+00
      0.594   1.237996     5.3715  0.000e+00
      0.594   1.237882     5.3708  0.000e+00
      0.592   1.238014     5.3687  0.000e+00
      0.592   1.237983     5.3678  0.000e+00
      0.590   1.237996     5.3676  0.000e+00
      0.591   1.237996     5.3676  0.000e+00
      0.587   1.237983     5.3676  0.000e+00
      0.590   1.237882     5.3676  0.000e+00
      0.590   1.237926     5.3669  0.000e+00
      0.595   1.237895     5.3664  0.000e+00
      0.595   1.237864     5.3659  0.000e+00
      0.594   1.237864     5.3649  0.000e+00
      0.596   1.237948     5.3641  0.000e+00
      0.595   1.237996     5.3645  0.000e+00
      0.592   1.238085     5.3660  0.000e+00
      0.591   1.238032     5.3679  0.000e+00
      0.592   1.237996     5.3688  0.000e+00
      0.591   1.238204     5.3692  0.000e+00
      0.592   1.238318     5.3719  0.000e+00
      0.594   1.238049     5.3739  0.000e+00
      0.594   1.237965     5.3720  0.000e+00
      0.593   1.237948     5.3695  0.000e+00
      0.593   1.237965     5.3682  0.000e+00
      0.591   1.237895     5.3673  0.000e+00
      0.591   1.237979     5.3666  0.000e+00
      0.592   1.237965     5.3668  0.000e+00
      0.592   1.237913     5.3672  0.000e+00
      0.591   1.237930     5.3669  0.000e+00
      0.591   1.237930     5.3665  0.000e+00
      0.593   1.237996     5.3664  0.000e+00
      0.592   1.238014     5.3669  0.000e+00
      0.590   1.238133     5.3673  0.000e+00
      0.590   1.238217     5.3688  0.000e+00
      0.589   1.238354     5.3713  0.000e+00
      0.591   1.238557     5.3746  0.000e+00
      0.592   1.238694     5.3790  0.000e+00
      0.595   1.238424     5.3825  0.000e+00
      0.592   1.238473     5.3823  0.000e+00
      0.592   1.238574     5.3825  0.000e+00
      0.592   1.238424     5.3831  0.000e+00
      0.591   1.238235     5.3820  0.000e+00
      0.591   1.238305     5.3791  0.000e+00
      0.590   1.238336     5.3781  0.000e+00
      0.589   1.238217     5.3775  0.000e+00
      0.590   1.238305     5.3760  0.000e+00
      0.591   1.238336     5.3758  0.000e+00
      0.592   1.238354     5.3763  0.000e+00
      0.593   1.238336     5.3772  0.000e+00
      0.591   1.238235     5.3772  0.000e+00
      0.593   1.238288     5.3762  0.000e+00
      0.591   1.238389     5.3759  0.000e+00
      0.592   1.238354     5.3766  0.000e+00
      0.591   1.238336     5.3768  0.000e+00
      0.589   1.238407     5.3768  0.000e+00
      0.590   1.238389     5.3773  0.000e+00
      0.591   1.238318     5.3777  0.000e+00
      0.591   1.238371     5.3772  0.000e+00
      0.590   1.238416     5.3771  0.000e+00
      0.588   1.238354     5.3774  0.000e+00
      0.592   1.238252     5.3771  0.000e+00
      0.595   1.238371     5.3763  0.000e+00
      0.593   1.238473     5.3772  0.000e+00
      0.591   1.238526     5.3788  0.000e+00
      0.590   1.238389     5.3802  0.000e+00
      0.593   1.238424     5.3798  0.000e+00
      0.592   1.238305     5.3793  0.000e+00
      0.590   1.238424     5.3795  0.000e+00
      0.593   1.238389     5.3805  0.000e+00
      0.596   1.238217     5.3795  0.000e+00
      0.597   1.238115     5.3777  0.000e+00
      0.594   1.238270     5.3759  0.000e+00
      0.594   1.238168     5.3750  0.000e+00
      0.594   1.238168     5.3739  0.000e+00
      0.593   1.238071     5.3729  0.000e+00
      0.592   1.238204     5.3711  0.000e+00
      0.591   1.238270     5.3709  0.000e+00
      0.590   1.238217     5.3719  0.000e+00
      0.594   1.238133     5.3725  0.000e+00
      0.596   1.238235     5.3729  0.000e+00
      0.593   1.238270     5.3735  0.000e+00
      0.594   1.238151     5.3732  0.000e+00
      0.593   1.238217     5.3727  0.000e+00
      0.590   1.238199     5.3724  0.000e+00
      0.591   1.238235     5.3719  0.000e+00
      0.592   1.238288     5.3727  0.000e+00
      0.591   1.238252     5.3736  0.000e+00
      0.591   1.238305     5.3735  0.000e+00
      0.593   1.238491     5.3745  0.000e+00
      0.591   1.238526     5.3767  0.000e+00
      0.594   1.238354     5.3782  0.000e+00
      0.593   1.238433     5.3780  0.000e+00
      0.591   1.238473     5.3784  0.000e+00
      0.592   1.238491     5.3787  0.000e+00
      0.594   1.238424     5.3787  0.000e+00
      0.593   1.238407     5.3779  0.000e+00
      0.592   1.238424     5.3771  0.000e+00
      0.591   1.238455     5.3773  0.000e+00
      0.592   1.238407     5.3778  0.000e+00
      0.591   1.238380     5.3778  0.000e+00
      0.590   1.238305     5.3773  0.000e+00
      0.592   1.238288     5.3767  0.000e+00
      0.589   1.238204     5.3743  0.000e+00
      0.591   1.238270     5.3720  0.000e+00
      0.592   1.238235     5.3715  0.000e+00
      0.593   1.238270     5.3708  0.000e+00
      0.594   1.238305     5.3713  0.000e+00
      0.595   1.238270     5.3729  0.000e+00
      0.594   1.238252     5.3728  0.000e+00
      0.597   1.238270     5.3723  0.000e+00
      0.595   1.238270     5.3724  0.000e+00
      0.594   1.238217     5.3725  0.000e+00
      0.597   1.238204     5.3717  0.000e+00
      0.595   1.238186     5.3710  0.000e+00
      0.593   1.238270     5.3707  0.000e+00
      0.593   1.238270     5.3714  0.000e+00
      0.592   1.238235     5.3715  0.000e+00
      0.592   1.238336     5.3712  0.000e+00
      0.591   1.238336     5.3725  0.000e+00
      0.593   1.238371     5.3736  0.000e+00
      0.591   1.238371     5.3745  0.000e+00
      0.592   1.238186     5.3747  0.000e+00
      0.597   1.238204     5.3737  0.000e+00
      0.597   1.238318     5.3729  0.000e+00
      0.598   1.238199     5.3732  0.000e+00
      0.597   1.238067     5.3720  0.000e+00
      0.598   1.238151     5.3703  0.000e+00
      0.594   1.238252     5.3699  0.000e+00
      0.592   1.238151     5.3706  0.000e+00
      0.590   1.238133     5.3708  0.000e+00
      0.592   1.238305     5.3707  0.000e+00
      0.593   1.238288     5.3715  0.000e+00
      0.598   1.238363     5.3722  0.000e+00
      0.598   1.238288     5.3740  0.000e+00
      0.599   1.238318     5.3751  0.000e+00
      0.596   1.238473     5.3756  0.000e+00
      0.595   1.238438     5.3770  0.000e+00
      0.596   1.238235     5.3778  0.000e+00
      0.597   1.238371     5.3779  0.000e+00
      0.597   1.238407     5.3778  0.000e+00
      0.593   1.238416     5.3776  0.000e+00
      0.595   1.238270     5.3774  0.000e+00
      0.595   1.238288     5.3764  0.000e+00
      0.597   1.238270     5.3761  0.000e+00
      0.598   1.238235     5.3758  0.000e+00
      0.597   1.238217     5.3754  0.000e+00
      0.596   1.238217     5.3747  0.000e+00
      0.600   1.238168     5.3746  0.000e+00
      0.599   1.238327     5.3746  0.000e+00
      0.598   1.238270     5.3746  0.000e+00
      0.597   1.238204     5.3737  0.000e+00
      0.597   1.238288     5.3730  0.000e+00
      0.595   1.238407     5.3733  0.000e+00
      0.596   1.238336     5.3744  0.000e+00
      0.595   1.238438     5.3754  0.000e+00
      0.597   1.238438     5.3762  0.000e+00
      0.598   1.238398     5.3777  0.000e+00
      0.599   1.238455     5.3783  0.000e+00
      0.599   1.238455     5.3793  0.000e+00
      0.598   1.238252     5.3786  0.000e+00
      0.599   1.238270     5.3765  0.000e+00
      0.598   1.238371     5.3756  0.000e+00
      0.597   1.238270     5.3751  0.000e+00
      0.593   1.238204     5.3746  0.000e+00
      0.596   1.238168     5.3735  0.000e+00
      0.598   1.238199     5.3728  0.000e+00
      0.598   1.238235     5.3724  0.000e+00
      0.598   1.238270     5.3720  0.000e+00
      0.600   1.238235     5.3723  0.000e+00
      0.603   1.238235     5.3722  0.000e+00
      0.600   1.238204     5.3725  0.000e+00
      0.599   1.238168     5.3721  0.000e+00
      0.599   1.238186     5.3714  0.000e+00
      0.600   1.238182     5.3712  0.000e+00
      0.603   1.238186     5.3707  0.000e+00
      0.601   1.238151     5.3708  0.000e+00
      0.600   1.238186     5.3710  0.000e+00
      0.600   1.238217     5.3714  0.000e+00
      0.602   1.238270     5.3720  0.000e+00
      0.603   1.238288     5.3729  0.000e+00
      0.602   1.238186     5.3731  0.000e+00
      0.603   1.238305     5.3723  0.000e+00
      0.604   1.238318     5.3745  0.000e+00
      0.603   1.238217     5.3756  0.000e+00
      0.602   1.238235     5.3749  0.000e+00
      0.603   1.238270     5.3748  0.000e+00
      0.601   1.238305     5.3741  0.000e+00
      0.601   1.238305     5.3741  0.000e+00
      0.598   1.238270     5.3738  0.000e+00
      0.599   1.238288     5.3733  0.000e+00
      0.602   1.238270     5.3721  0.000e+00
      0.602   1.238288     5.3712  0.000e+00
      0.604   1.238186     5.3717  0.000e+00
      0.604   1.238217     5.3711  0.000e+00
      0.604   1.238204     5.3701  0.000e+00
      0.604   1.238204     5.3698  0.000e+00
      0.603   1.238133     5.3697  0.000e+00
      0.601   1.238054     5.3689  0.000e+00
      0.598   1.238186     5.3673  0.000e+00
      0.597   1.237996     5.3677  0.000e+00
      0.599   1.237930     5.3675  0.000e+00
      0.603   1.238014     5.3664  0.000e+00
      0.603   1.237882     5.3661  0.000e+00
      0.603   1.237763     5.3650  0.000e+00
      0.606   1.237829     5.3630  0.000e+00
      0.606   1.237780     5.3619  0.000e+00
      0.605   1.237793     5.3612  0.000e+00
      0.605   1.237829     5.3615  0.000e+00
      0.600   1.237864     5.3612  0.000e+00
      0.604   1.237727     5.3602  0.000e+00
      0.604   1.237727     5.3591  0.000e+00
      0.604   1.237780     5.3582  0.000e+00
      0.604   1.237829     5.3583  0.000e+00
      0.605   1.237851     5.3592  0.000e+00
      0.605   1.237811     5.3600  0.000e+00
      0.604   1.237811     5.3607  0.000e+00
      0.608   1.237829     5.3610  0.000e+00
      0.606   1.237780     5.3610  0.000e+00
      0.605   1.237780     5.3608  0.000e+00
      0.607   1.237727     5.3605  0.000e+00
      0.604   1.237780     5.3598  0.000e+00
      0.605   1.237882     5.3599  0.000e+00
      0.601   1.237815     5.3606  0.000e+00
      0.601   1.237745     5.3604  0.000e+00
      0.603   1.237948     5.3600  0.000e+00
      0.604   1.237895     5.3614  0.000e+00
      0.606   1.237882     5.3622  0.000e+00
      0.606   1.238102     5.3624  0.000e+00
      0.605   1.238116     5.3645  0.000e+00
      0.605   1.237846     5.3660  0.000e+00
      0.606   1.237926     5.3649  0.000e+00
      0.604   1.237983     5.3642  0.000e+00
      0.600   1.238049     5.3645  0.000e+00
      0.601   1.238049     5.3656  0.000e+00
      0.603   1.238014     5.3657  0.000e+00
      0.604   1.237983     5.3656  0.000e+00
      0.602   1.237948     5.3650  0.000e+00
      0.602   1.238032     5.3642  0.000e+00
      0.604   1.238054     5.3654  0.000e+00
      0.605   1.238014     5.3660  0.000e+00
      0.603   1.238067     5.3658  0.000e+00
      0.606   1.238116     5.3662  0.000e+00
      0.605   1.238049     5.3671  0.000e+00
      0.605   1.237983     5.3676  0.000e+00
      0.604   1.237996     5.3669  0.000e+00
      0.602   1.237948     5.3665  0.000e+00
      0.603   1.237904     5.3661  0.000e+00
      0.604   1.237864     5.3654  0.000e+00
      0.604   1.237864     5.3648  0.000e+00
      0.603   1.237882     5.3643  0.000e+00
      0.604   1.237811     5.3639  0.000e+00
      0.606   1.237780     5.3632  0.000e+00
      0.605   1.237793     5.3625  0.000e+00
      0.606   1.237763     5.3617  0.000e+00
      0.611   1.237815     5.3610  0.000e+00
      0.626   1.237829     5.3610  0.000e+00
      0.634   1.237811     5.3613  0.000e+00
      0.661   1.237811     5.3614  0.000e+00
      0.726   1.237780     5.3614  0.000e+00
      0.840   1.237507     5.3609  0.000e+00
      0.958   1.237370     5.3586  0.000e+00
      1.005   1.237370     5.3543  0.000e+00
      1.030   1.237357     5.3513  0.000e+00
      1.112   1.237304     5.3490  0.000e+00
      1.238   1.237321     5.3467  0.000e+00
      1.337   1.237286     5.3458  0.000e+00
      1.377   1.237304     5.3451  0.000e+00
      1.390   1.237304     5.3453  0.000e+00
      1.442   1.237269     5.3452  0.000e+00
      1.538   1.237149     5.3409  0.000e+00
      1.614   1.237211     5.3293  0.000e+00
      1.660   1.237202     5.3212  0.000e+00
      1.675   1.237185     5.3153  0.000e+00
      1.722   1.237185     5.3117  0.000e+00
      1.810   1.237035     5.3078  0.000e+00
      1.886   1.236982     5.3011  0.000e+00
      1.929   1.236947     5.2941  0.000e+00
      1.945   1.236964     5.2901  0.000e+00
      1.994   1.236995     5.2895  0.000e+00
      2.073   1.236982     5.2875  0.000e+00
      2.139   1.236947     5.2795  0.000e+00
      2.160   1.236828     5.2645  0.000e+00
      2.171   1.236881     5.2488  0.000e+00
      2.236   1.236762     5.2406  0.000e+00
      2.330   1.236321     5.2266  0.000e+00
      2.431   1.236100     5.1924  0.000e+00
      2.470   1.236118     5.1578  0.000e+00
      2.482   1.236220     5.1350  0.000e+00
      2.517   1.236070     5.1241  0.000e+00
      2.602   1.235408     5.1147  0.000e+00
      2.691   1.235461     5.0995  0.000e+00
      2.756   1.235646     5.0890  0.000e+00
      2.773   1.235646     5.0842  0.000e+00
      2.778   1.235664     5.0816  0.000e+00
      2.840   1.235589     5.0815  0.000e+00
      2.920   1.235492     5.0802  0.000e+00
      2.994   1.235426     5.0760  0.000e+00
      3.029   1.235391     5.0701  0.000e+00
      3.037   1.235545     5.0660  0.000e+00
      3.065   1.235682     5.0667  0.000e+00
      3.109   1.235373     5.0697  0.000e+00
      3.181   1.234315     5.0662  0.000e+00
      3.237   1.234985     5.0548  0.000e+00
      3.255   1.234919     5.0521  0.000e+00
      3.259   1.234681     5.0494  0.000e+00
      3.289   1.233989     5.0478  0.000e+00
      3.351   1.234209     5.0388  0.000e+00
      3.413   1.234072     5.0325  0.000e+00
      3.454   1.233843     5.0280  0.000e+00
      3.460   1.234139     5.0193  0.000e+00
      3.466   1.234073     5.0180  0.000e+00
      3.499   1.233905     5.0176  0.000e+00
      3.567   1.233887     5.0141  0.000e+00
      3.632   1.233667     5.0093  0.000e+00
      3.661   1.233583     4.9997  0.000e+00
      3.662   1.233649     4.9907  0.000e+00
      3.677   1.233623     4.9849  0.000e+00
      3.725   1.233619     4.9826  0.000e+00
      3.782   1.233429     4.9798  0.000e+00
      3.822   1.224872     4.9617  0.000e+00
      3.831   1.175774     4.9175  0.000e+00
      3.827   1.189233     4.8896  0.000e+00
      3.778   1.219872     4.8789  0.000e+00
      3.657   1.232570     4.8859  0.000e+00
      3.473   1.233566     4.9033  0.000e+00
      3.337   1.234240     4.9287  0.000e+00
      3.252   1.234139     4.9556  0.000e+00
      3.149   1.234187     4.9783  0.000e+00
      2.996   1.234293     4.9944  0.000e+00
      2.832   1.234377     5.0062  0.000e+00
      2.686   1.234311     5.0155  0.000e+00
      2.596   1.234443     5.0219  0.000e+00
      2.517   1.234800     5.0269  0.000e+00
      2.418   1.234853     5.0339  0.000e+00
      2.286   1.234646     5.0416  0.000e+00
      2.152   1.235042     5.0478  0.000e+00
      2.027   1.235122     5.0554  0.000e+00
      1.923   1.235391     5.0643  0.000e+00
      1.810   1.235832     5.0750  0.000e+00
      1.672   1.235832     5.0934  0.000e+00
      1.520   1.236100     5.1115  0.000e+00
      1.404   1.236070     5.1295  0.000e+00
      1.331   1.236136     5.1453  0.000e+00
      1.250   1.236237     5.1572  0.000e+00
      1.154   1.236237     5.1685  0.000e+00
      1.031   1.236290     5.1795  0.000e+00
      0.886   1.236153     5.1911  0.000e+00
      0.745   1.236713     5.2098  0.000e+00
      0.616   1.236779     5.2338  0.000e+00
      0.474   1.236916     5.2546  0.000e+00
      0.377   1.237048     5.2700  0.000e+00
      0.294   1.237251     5.2830  0.000e+00
      0.245   1.237370     5.2966  0.000e+00
      0.203   1.237405     5.3097  0.000e+00
      0.174   1.237441     5.3199  0.000e+00
      0.154   1.237423     5.3277  0.000e+00
      0.139   1.237423     5.3335  0.000e+00
      0.141   1.237286     5.3381  0.000e+00
      0.093   1.237083     5.3413  0.000e+00
      0.022   1.237035     5.3432  0.000e+00
      0.023   1.237118     5.3423  0.000e+00
      0.028   1.237185     5.3394  0.000e+00
      0.028   1.237101     5.3355  0.000e+00
      0.029   1.236982     5.3330  0.000e+00
      0.028   1.236999     5.3291  0.000e+00
      0.028   1.237238     5.3222  0.000e+00
      0.028   1.027434     5.3157  0.000e+00
      0.026   0.247669     5.3095  0.000e+00
      0.028   0.244497     5.3052  0.000e+00
      0.026   0.217151     5.3044  0.000e+00
      0.028   0.205103     5.3045  0.000e+00
      0.027   0.185935     5.3052  0.000e+00
      0.029   0.164547     5.3059  0.000e+00
      0.027   0.149804     5.3075  0.000e+00
      0.027   0.132234     5.3091  0.000e+00
      0.025   0.120417     5.3101  0.000e+00
